Counter	AF3	F7	F3	FC5	T7	P7	O1	O2	P8	T8	FC6	F4	F8	AF4	GyroX	GyroY	Timestamp	FUNC_ID	FUNC_VALUE	MARKER	SYNC_SIGNAL	CMS_Q	DRL_Q	AF3_Q	F7_Q	F3_Q	FC5_Q	T7_Q	P7_Q	O1_Q	O2_Q	P8_Q	T8_Q	FC6_Q	F4_Q	F8_Q	AF4_Q	Blink	LeftWink	RightWink	EyesOpen	LeftEyeLid	RightEyelid
6.000000	4174.871795	4385.641026	4412.820513	3628.205128	4369.230769	4592.307692	4578.974359	4479.487179	3978.461538	4052.820513	4408.717949	4397.948718	4196.410256	3985.128205	1642.000000	1695.000000	61.766000	0.000000	0.000000	0.000000	0.000000	4	4	4	4	4	4	4	4	3	3	4	4	4	4	4	4	0	0	0	1	0.000	0.000
7.000000	4182.564103	4363.076923	4417.948718	3622.051282	4358.974359	4587.692308	4576.923077	4486.666667	3985.641026	4062.564103	4429.743590	4408.205128	4230.769231	4018.461538	1644.000000	1693.000000	61.774000	0.000000	0.000000	0.000000	0.000000	4	4	4	4	4	4	4	4	3	3	4	4	4	4	4	4	0	0	0	1	0.000	0.000
8.000000	4188.717949	4346.153846	4424.102564	3618.974359	4356.410256	4584.102564	4572.307692	4491.794872	3989.743590	4073.846154	4454.358974	4413.333333	4271.282051	4045.641026	1645.000000	1689.000000	61.782000	0.000000	0.000000	0.000000	0.000000	4	4	4	4	4	4	4	4	3	3	4	4	4	4	4	4	0	0	0	1	0.000	0.000
9.000000	4187.179487	4317.948718	4420.512821	3607.692308	4356.923077	4594.358974	4570.769231	4487.692308	3988.205128	4081.538462	4465.128205	4420.512821	4294.871795	4050.256410	1646.000000	1688.000000	61.790000	0.000000	0.000000	0.000000	0.000000	4	4	4	4	4	4	4	4	3	3	4	4	4	4	4	4	0	0	0	1	0.000	0.000
10.000000	4182.564103	4293.333333	4415.384615	3598.461538	4352.307692	4603.589744	4569.230769	4478.461538	3987.179487	4082.564103	4462.564103	4428.205128	4300.512821	4043.589744	1648.000000	1686.000000	61.796000	0.000000	0.000000	0.000000	0.000000	4	4	4	4	4	4	4	4	3	3	4	4	4	4	4	4	0	0	0	1	0.000	0.000
11.000000	4181.538462	4296.410256	4419.487179	3601.025641	4350.256410	4601.025641	4560.512821	4472.820513	3987.179487	4083.589744	4463.589744	4429.230769	4300.512821	4038.974359	1649.000000	1687.000000	61.805000	0.000000	0.000000	0.000000	0.000000	4	4	4	4	4	4	4	4	3	3	4	4	4	4	4	4	0	0	0	1	0.000	0.000
12.000000	4184.102564	4308.717949	4422.051282	3604.102564	4356.923077	4600.512821	4554.871795	4471.282051	3995.897436	4091.282051	4474.871795	4427.692308	4307.179487	4050.769231	1652.000000	1686.000000	61.812000	0.000000	0.000000	0.000000	0.000000	4	4	4	4	4	4	4	4	3	3	4	4	4	4	4	4	0	0	0	1	0.000	0.000
13.000000	4182.051282	4310.256410	4417.948718	3603.076923	4361.025641	4605.128205	4554.871795	4478.461538	4006.666667	4096.923077	4483.076923	4429.230769	4314.871795	4059.487179	1652.000000	1685.000000	61.820000	0.000000	0.000000	0.000000	0.000000	4	4	4	4	4	4	4	4	3	3	4	4	4	4	4	4	0	0	0	1	0.000	0.000
14.000000	4174.358974	4312.307692	4412.307692	3602.564103	4354.358974	4602.564103	4553.333333	4493.333333	4005.641026	4094.358974	4473.333333	4427.692308	4306.666667	4042.051282	1655.000000	1687.000000	61.828000	0.000000	0.000000	0.000000	0.000000	4	4	4	4	4	4	4	4	3	3	4	4	4	4	4	4	0	0	0	1	0.000	0.000
15.000000	4171.794872	4318.461538	4411.794872	3602.051282	4348.717949	4600.000000	4554.358974	4505.641026	4007.179487	4098.461538	4461.025641	4426.666667	4295.384615	4035.384615	1655.000000	1688.000000	61.835000	0.000000	0.000000	0.000000	0.000000	4	4	4	4	4	4	4	4	3	3	4	4	4	4	4	4	0	0	0	1	0.000	0.000
16.000000	4175.384615	4323.589744	4416.923077	3603.589744	4355.384615	4604.615385	4551.794872	4508.717949	4012.307692	4105.128205	4461.025641	4427.692308	4296.923077	4045.128205	1657.000000	1690.000000	61.844000	0.000000	0.000000	0.000000	0.000000	4	4	4	4	4	4	4	4	3	3	4	4	4	4	4	4	0	0	0	1	0.000	0.000
17.000000	4174.358974	4328.205128	4414.871795	3603.589744	4363.076923	4606.666667	4543.076923	4507.179487	4009.230769	4101.538462	4463.589744	4423.589744	4297.435897	4045.128205	1659.000000	1690.000000	61.851000	0.000000	0.000000	0.000000	0.000000	4	4	4	4	4	4	4	4	3	3	4	4	4	4	4	4	0	0	0	1	0.000	0.000
18.000000	4166.666667	4325.641026	4400.000000	3600.512821	4352.307692	4602.564103	4533.333333	4507.179487	4005.641026	4096.923077	4462.051282	4418.974359	4295.384615	4035.384615	1661.000000	1690.000000	61.861000	0.000000	0.000000	0.000000	0.000000	4	4	4	4	4	4	4	4	3	3	4	4	4	4	4	4	0	0	0	1	0.000	0.000
19.000000	4160.000000	4321.025641	4388.717949	3600.512821	4338.974359	4600.512821	4528.717949	4504.615385	4004.615385	4096.410256	4460.000000	4417.948718	4294.871795	4021.538462	1663.000000	1689.000000	61.869000	0.000000	0.000000	0.000000	0.000000	4	4	4	4	4	4	4	4	3	3	4	4	4	4	4	4	0	0	0	1	0.000	0.000
20.000000	4157.948718	4324.615385	4390.256410	3603.076923	4346.666667	4600.512821	4525.128205	4503.589744	4006.153846	4093.846154	4458.974359	4413.333333	4287.179487	4013.333333	1665.000000	1690.000000	61.877000	0.000000	0.000000	0.000000	0.000000	4	4	4	4	4	4	4	4	3	3	4	4	4	4	4	4	0	0	0	1	0.000	0.000
21.000000	4157.948718	4328.205128	4394.358974	3602.051282	4354.871795	4598.974359	4522.564103	4512.820513	4011.282051	4090.769231	4452.307692	4409.230769	4276.923077	4018.974359	1669.000000	1688.000000	61.885000	0.000000	0.000000	0.000000	0.000000	4	4	4	4	4	4	4	4	3	3	4	4	4	4	4	4	0	0	0	1	0.000	0.000
22.000000	4157.435897	4326.666667	4394.871795	3600.000000	4349.230769	4598.461538	4522.564103	4521.025641	4015.897436	4091.794872	4445.641026	4411.282051	4277.435897	4022.564103	1671.000000	1689.000000	61.891000	0.000000	0.000000	0.000000	0.000000	4	4	4	4	4	4	4	4	3	3	4	4	4	4	4	4	0	0	0	1	0.000	0.000
23.000000	4155.384615	4326.153846	4394.358974	3602.051282	4346.666667	4599.487179	4519.487179	4521.025641	4015.897436	4091.282051	4443.589744	4410.256410	4276.410256	4013.846154	1677.000000	1687.000000	61.899000	0.000000	0.000000	0.000000	0.000000	4	4	4	4	4	4	4	4	3	3	4	4	4	4	4	4	0	0	0	1	0.000	0.000
24.000000	4151.794872	4325.128205	4394.358974	3604.102564	4353.333333	4598.461538	4514.871795	4520.512821	4016.923077	4087.179487	4442.051282	4407.692308	4265.641026	4005.128205	1681.000000	1683.000000	61.907000	0.000000	0.000000	0.000000	0.000000	4	4	4	4	4	4	4	4	3	3	4	4	4	4	4	4	0	0	0	1	0.000	0.000
25.000000	4152.307692	4327.692308	4394.358974	3602.051282	4350.769231	4597.948718	4509.743590	4517.435897	4012.307692	4083.589744	4442.564103	4408.717949	4258.974359	4001.025641	1684.000000	1681.000000	61.914000	0.000000	0.000000	0.000000	0.000000	4	4	4	4	4	4	4	4	3	3	4	4	4	4	4	4	0	0	0	1	0.000	0.000
26.000000	4158.974359	4335.384615	4398.974359	3601.538462	4342.564103	4601.025641	4502.051282	4507.692308	4003.589744	4082.051282	4445.128205	4414.871795	4265.641026	4008.205128	1688.000000	1677.000000	61.921000	0.000000	0.000000	0.000000	0.000000	4	4	4	4	4	4	4	4	3	3	4	4	4	4	4	4	0	0	0	1	0.000	0.000
27.000000	4160.512821	4336.923077	4404.102564	3605.128205	4345.128205	4601.538462	4491.794872	4502.051282	4001.538462	4082.564103	4448.717949	4422.564103	4271.794872	4014.358974	1692.000000	1673.000000	61.929000	0.000000	0.000000	0.000000	0.000000	4	4	4	4	4	4	4	4	3	3	4	4	4	4	4	4	0	0	0	1	0.000	0.000
28.000000	4153.846154	4333.333333	4400.000000	3607.179487	4348.205128	4600.000000	4488.717949	4504.102564	4001.538462	4084.102564	4448.717949	4421.538462	4268.205128	4006.153846	1696.000000	1668.000000	61.937000	0.000000	0.000000	0.000000	0.000000	4	4	4	4	4	4	4	4	3	3	4	4	4	4	4	4	0	0	0	1	0.000	0.000
29.000000	4151.282051	4334.871795	4398.974359	3607.179487	4344.102564	4601.538462	4488.205128	4500.512821	4001.538462	4089.230769	4446.153846	4414.871795	4264.615385	4008.205128	1700.000000	1663.000000	61.945000	0.000000	0.000000	0.000000	0.000000	4	4	4	4	4	4	4	4	3	3	4	4	4	4	4	4	0	0	0	1	0.000	0.000
30.000000	4154.358974	4338.461538	4405.641026	3607.692308	4347.179487	4602.051282	4480.512821	4496.410256	4003.076923	4093.846154	4444.102564	4416.410256	4265.641026	4011.282051	1705.000000	1658.000000	61.953000	0.000000	0.000000	0.000000	0.000000	4	4	4	4	4	4	4	4	3	3	4	4	4	4	4	4	0	0	0	1	0.000	0.000
31.000000	4154.358974	4337.948718	4406.153846	3607.179487	4353.846154	4597.948718	4475.384615	4495.384615	4002.051282	4089.230769	4439.487179	4418.974359	4264.102564	3996.410256	1709.000000	1655.000000	61.961000	0.000000	0.000000	0.000000	0.000000	4	4	4	4	4	4	4	4	3	3	4	4	4	4	4	4	0	0	0	1	0.000	0.000
32.000000	4151.282051	4338.974359	4402.564103	3607.179487	4345.641026	4595.384615	4476.410256	4495.384615	3998.974359	4082.051282	4436.923077	4413.846154	4258.461538	3992.307692	1715.000000	1651.000000	61.968000	0.000000	0.000000	0.000000	0.000000	4	4	4	4	4	4	4	4	3	3	4	4	4	4	4	4	0	0	0	1	0.000	0.000
33.000000	4151.794872	4341.025641	4399.487179	3607.179487	4336.923077	4597.948718	4476.410256	4500.512821	4000.000000	4083.076923	4440.000000	4414.871795	4258.461538	4007.692308	1718.000000	1649.000000	61.976000	0.000000	0.000000	0.000000	0.000000	4	4	4	4	4	4	4	4	3	3	4	4	4	4	4	4	0	0	0	1	0.000	0.000
34.000000	4150.769231	4336.410256	4396.923077	3604.615385	4343.589744	4600.512821	4477.948718	4506.666667	4003.589744	4090.769231	4444.615385	4421.025641	4262.564103	4006.153846	1726.000000	1648.000000	61.984000	0.000000	0.000000	0.000000	0.000000	4	4	4	4	4	4	4	4	3	3	4	4	4	4	4	4	0	0	0	1	0.000	0.000
35.000000	4150.256410	4333.846154	4402.564103	3603.589744	4347.179487	4596.410256	4477.435897	4507.692308	4007.179487	4094.871795	4446.666667	4425.128205	4264.615385	3993.846154	1731.000000	1648.000000	61.992000	0.000000	0.000000	0.000000	0.000000	4	4	4	4	4	4	4	4	3	3	4	4	4	4	4	4	0	0	0	1	0.000	0.000
36.000000	4153.333333	4338.461538	4409.743590	3604.615385	4342.564103	4590.769231	4477.435897	4504.615385	4004.615385	4091.794872	4443.589744	4423.076923	4256.923077	4000.000000	1735.000000	1649.000000	62.000000	0.000000	0.000000	0.000000	0.000000	4	4	4	4	4	4	4	4	3	3	4	4	4	4	4	4	0	0	0	1	0.000	0.000
37.000000	4150.256410	4336.410256	4404.615385	3602.564103	4340.512821	4589.230769	4477.948718	4504.102564	4001.025641	4090.256410	4435.384615	4417.435897	4249.230769	4007.692308	1741.000000	1648.000000	62.008000	0.000000	0.000000	0.000000	0.000000	4	4	4	4	4	4	4	4	3	3	4	4	4	4	4	4	0	0	0	1	0.000	0.000
38.000000	4138.974359	4326.666667	4397.435897	3600.000000	4343.076923	4588.717949	4473.333333	4503.076923	4002.564103	4092.820513	4429.230769	4420.000000	4249.743590	3995.897436	1746.000000	1649.000000	62.015000	0.000000	0.000000	0.000000	0.000000	4	4	4	4	4	4	4	4	3	3	4	4	4	4	4	4	0	0	0	1	0.000	0.000
39.000000	4134.871795	4322.564103	4397.948718	3600.512821	4339.487179	4585.641026	4475.897436	4501.025641	4002.564103	4091.794872	4429.230769	4423.076923	4248.717949	3984.615385	1751.000000	1648.000000	62.023000	0.000000	0.000000	0.000000	0.000000	4	4	4	4	4	4	4	4	3	3	4	4	4	4	4	4	0	0	0	1	0.000	0.000
40.000000	4138.974359	4328.205128	4396.923077	3603.589744	4340.000000	4587.179487	4484.615385	4503.076923	4002.564103	4089.230769	4430.256410	4417.948718	4247.692308	3993.846154	1756.000000	1647.000000	62.031000	0.000000	0.000000	0.000000	0.000000	4	4	4	4	4	4	4	4	3	3	4	4	4	4	4	4	0	0	0	1	0.000	0.000
41.000000	4138.461538	4334.871795	4396.410256	3606.666667	4349.743590	4590.256410	4486.153846	4505.128205	4009.743590	4092.307692	4430.256410	4417.435897	4250.769231	3996.410256	1760.000000	1643.000000	62.041000	0.000000	0.000000	0.000000	0.000000	4	4	4	4	4	4	4	4	3	3	4	4	4	4	4	4	0	0	0	1	0.000	0.000
42.000000	4135.897436	4330.256410	4394.871795	3605.128205	4349.743590	4586.666667	4480.512821	4505.128205	4013.846154	4092.307692	4427.179487	4420.512821	4249.230769	3987.179487	1764.000000	1642.000000	62.048000	0.000000	0.000000	0.000000	0.000000	4	4	4	4	4	4	4	4	3	3	4	4	4	4	4	4	0	0	0	1	0.000	0.000
43.000000	4136.923077	4325.128205	4388.205128	3602.051282	4343.076923	4581.025641	4481.538462	4504.102564	4010.256410	4091.282051	4428.717949	4417.435897	4250.769231	3990.769231	1772.000000	1641.000000	62.055000	0.000000	0.000000	0.000000	0.000000	4	4	4	4	4	4	4	4	3	3	4	4	4	4	4	4	0	0	0	1	0.000	0.000
44.000000	4136.410256	4328.205128	4389.743590	3603.076923	4349.743590	4582.051282	4486.666667	4504.615385	4013.846154	4100.000000	4438.461538	4418.974359	4261.025641	3997.435897	1775.000000	1642.000000	62.062000	0.000000	0.000000	0.000000	0.000000	4	4	4	4	4	4	4	4	3	3	4	4	4	4	4	4	0	0	0	1	0.000	0.000
45.000000	4137.435897	4327.692308	4397.435897	3604.615385	4357.948718	4585.641026	4493.846154	4506.666667	4021.538462	4105.128205	4440.512821	4425.641026	4267.179487	4000.000000	1778.000000	1641.000000	62.070000	0.000000	0.000000	0.000000	0.000000	4	4	4	4	4	4	4	4	3	3	4	4	4	4	4	4	0	0	0	1	0.000	0.000
46.000000	4135.897436	4321.538462	4395.897436	3603.076923	4352.307692	4586.153846	4498.974359	4508.717949	4018.461538	4095.897436	4430.769231	4424.102564	4262.564103	4002.051282	1782.000000	1641.000000	62.078000	0.000000	0.000000	0.000000	0.000000	4	4	4	4	4	4	4	4	3	3	4	4	4	4	4	4	0	0	0	1	0.000	0.000
47.000000	4130.769231	4323.076923	4388.205128	3602.051282	4349.743590	4582.564103	4499.487179	4505.641026	4009.743590	4086.666667	4425.128205	4417.948718	4252.820513	3989.743590	1785.000000	1643.000000	62.086000	0.000000	0.000000	0.000000	0.000000	4	4	4	4	4	4	4	4	3	3	4	4	4	4	4	4	0	0	0	1	0.000	0.000
48.000000	4132.307692	4324.615385	4389.743590	3603.589744	4356.410256	4583.076923	4504.615385	4503.076923	4013.846154	4091.282051	4432.307692	4420.000000	4252.307692	3984.102564	1787.000000	1647.000000	62.096000	0.000000	0.000000	0.000000	0.000000	4	4	4	4	4	4	4	4	3	3	4	4	4	4	4	4	0	0	0	1	0.000	0.000
49.000000	4138.974359	4325.128205	4394.871795	3605.128205	4361.025641	4584.615385	4511.282051	4507.179487	4021.538462	4100.512821	4442.051282	4424.102564	4262.564103	4001.538462	1790.000000	1650.000000	62.103000	0.000000	0.000000	0.000000	0.000000	4	4	4	4	4	4	4	4	3	3	4	4	4	4	4	4	0	0	0	1	0.000	0.000
50.000000	4137.948718	4330.769231	4397.435897	3607.179487	4361.025641	4577.948718	4506.666667	4505.128205	4014.358974	4099.487179	4443.076923	4424.102564	4266.666667	4002.564103	1791.000000	1653.000000	62.111000	0.000000	0.000000	0.000000	0.000000	4	4	4	4	4	4	4	4	3	3	4	4	4	4	4	4	0	0	0	1	0.000	0.000
51.000000	4134.871795	4330.769231	4398.974359	3606.153846	4355.897436	4574.871795	4495.897436	4492.820513	4006.153846	4091.794872	4439.487179	4419.487179	4260.512821	3987.692308	1793.000000	1654.000000	62.119000	0.000000	0.000000	0.000000	0.000000	4	4	4	4	4	4	4	4	3	3	4	4	4	4	4	4	0	0	0	1	0.000	0.000
52.000000	4139.487179	4324.102564	4398.461538	3602.564103	4354.358974	4579.487179	4490.769231	4494.358974	4010.256410	4093.333333	4440.512821	4415.897436	4260.000000	3991.282051	1793.000000	1659.000000	62.126000	0.000000	0.000000	0.000000	0.000000	4	4	4	4	4	4	4	4	3	3	4	4	4	4	4	4	0	0	0	1	0.000	0.000
53.000000	4136.410256	4324.615385	4396.410256	3604.615385	4356.923077	4582.051282	4490.769231	4505.128205	4014.871795	4099.487179	4446.153846	4416.923077	4266.153846	3995.897436	1796.000000	1662.000000	62.134000	0.000000	0.000000	0.000000	0.000000	4	4	4	4	4	4	4	4	3	3	4	4	4	4	4	4	0	0	0	1	0.000	0.000
54.000000	4122.564103	4328.205128	4391.794872	3607.179487	4357.948718	4583.076923	4489.230769	4504.615385	4020.000000	4099.487179	4445.641026	4415.897436	4266.666667	3991.794872	1796.000000	1663.000000	62.141000	0.000000	0.000000	0.000000	0.000000	4	4	4	4	4	4	4	4	3	3	4	4	4	4	4	4	0	0	0	1	0.000	0.000
55.000000	4117.435897	4321.025641	4383.589744	3603.076923	4360.512821	4587.692308	4488.717949	4501.025641	4028.205128	4100.000000	4441.538462	4414.358974	4264.615385	3985.128205	1796.000000	1666.000000	62.149000	0.000000	0.000000	0.000000	0.000000	4	4	4	4	4	4	4	4	3	3	4	4	4	4	4	4	0	0	0	1	0.000	0.000
56.000000	4123.589744	4317.435897	4382.051282	3603.076923	4366.153846	4590.256410	4488.205128	4504.102564	4031.282051	4106.153846	4447.179487	4413.333333	4268.205128	3978.461538	1797.000000	1668.000000	62.158000	0.000000	0.000000	0.000000	0.000000	4	4	4	4	4	4	4	4	3	3	4	4	4	4	4	4	0	0	0	1	0.000	0.000
57.000000	4127.692308	4327.179487	4387.179487	3608.205128	4370.256410	4594.358974	4489.743590	4506.153846	4031.282051	4108.205128	4457.435897	4414.871795	4278.461538	3986.153846	1796.000000	1670.000000	62.166000	0.000000	0.000000	0.000000	0.000000	4	4	4	4	4	4	4	4	3	3	4	4	4	4	4	4	0	0	0	1	0.000	0.000
58.000000	4124.102564	4327.692308	4385.641026	3605.641026	4369.743590	4601.025641	4492.307692	4503.589744	4034.358974	4106.666667	4460.512821	4414.871795	4282.051282	4000.512821	1798.000000	1669.000000	62.174000	0.000000	0.000000	0.000000	0.000000	4	4	4	4	4	4	4	4	3	3	4	4	4	4	4	4	0	0	0	1	0.000	0.000
59.000000	4120.512821	4316.410256	4381.025641	3601.538462	4370.769231	4603.076923	4493.846154	4503.589744	4035.897436	4107.692308	4457.948718	4413.333333	4280.000000	3994.358974	1798.000000	1669.000000	62.181000	0.000000	0.000000	0.000000	0.000000	4	4	4	4	4	4	4	4	3	3	4	4	4	4	4	4	0	0	0	1	0.000	0.000
60.000000	4121.538462	4314.871795	4382.564103	3606.153846	4373.333333	4601.025641	4490.769231	4503.589744	4034.358974	4106.666667	4457.948718	4411.794872	4280.000000	3981.025641	1799.000000	1670.000000	62.188000	0.000000	0.000000	0.000000	0.000000	4	4	4	4	4	4	4	4	3	3	4	4	4	4	4	4	0	0	0	1	0.000	0.000
61.000000	4118.974359	4316.410256	4382.051282	3607.692308	4373.333333	4593.846154	4487.179487	4503.589744	4033.333333	4106.666667	4460.000000	4411.794872	4278.974359	3986.666667	1801.000000	1670.000000	62.196000	0.000000	0.000000	0.000000	0.000000	4	4	4	4	4	4	4	4	3	3	4	4	4	4	4	4	0	0	0	1	0.000	0.000
62.000000	4111.282051	4312.820513	4380.000000	3603.076923	4372.307692	4589.743590	4486.666667	4502.051282	4038.461538	4117.948718	4461.538462	4412.307692	4286.666667	3991.794872	1803.000000	1668.000000	62.204000	0.000000	0.000000	0.000000	0.000000	4	4	4	4	4	4	4	4	3	3	4	4	4	4	4	4	0	0	0	1	0.000	0.000
63.000000	4108.717949	4310.769231	4378.974359	3601.538462	4375.384615	4593.846154	4487.692308	4503.076923	4045.641026	4125.641026	4462.564103	4409.743590	4295.897436	3980.000000	1802.000000	1669.000000	62.212000	0.000000	0.000000	0.000000	0.000000	4	4	4	4	4	4	4	4	3	3	4	4	4	4	4	4	0	0	0	1	0.000	0.000
64.000000	4106.666667	4301.025641	4375.384615	3602.051282	4373.333333	4594.871795	4487.692308	4504.615385	4043.076923	4120.512821	4460.000000	4408.205128	4284.615385	3968.717949	1805.000000	1670.000000	62.220000	0.000000	0.000000	0.000000	0.000000	4	4	4	4	4	4	4	4	3	3	4	4	4	4	4	4	0	0	0	1	0.000	0.000
65.000000	4106.666667	4298.461538	4378.461538	3603.076923	4367.692308	4593.333333	4488.205128	4504.102564	4035.897436	4118.461538	4458.461538	4408.717949	4279.487179	3978.974359	1804.000000	1669.000000	62.227000	0.000000	0.000000	0.000000	0.000000	4	4	4	4	4	4	4	4	3	3	4	4	4	4	4	4	0	0	0	1	0.000	0.000
66.000000	4116.923077	4312.307692	4391.794872	3607.179487	4374.358974	4596.410256	4490.769231	4504.102564	4036.410256	4123.589744	4463.076923	4415.384615	4296.923077	3994.871795	1805.000000	1671.000000	62.235000	0.000000	0.000000	0.000000	0.000000	4	4	4	4	4	4	4	4	3	3	4	4	4	4	4	4	0	0	0	1	0.000	0.000
67.000000	4120.000000	4306.666667	4398.974359	3607.692308	4381.538462	4597.435897	4493.333333	4506.153846	4039.487179	4120.000000	4461.025641	4426.153846	4289.743590	3981.538462	1805.000000	1673.000000	62.244000	0.000000	0.000000	0.000000	0.000000	4	4	4	4	4	4	4	4	3	3	4	4	4	4	4	4	0	0	0	1	0.000	0.000
68.000000	4108.205128	4284.102564	4396.410256	3603.076923	4380.000000	4592.820513	4492.307692	4507.692308	4036.923077	4112.820513	4456.410256	4424.615385	4272.820513	3964.102564	1804.000000	1676.000000	62.252000	0.000000	0.000000	0.000000	0.000000	4	4	4	4	4	4	4	4	3	3	4	4	4	4	4	4	0	0	0	1	0.000	0.000
69.000000	4107.179487	4285.128205	4395.897436	3601.538462	4378.461538	4589.743590	4490.256410	4510.769231	4040.512821	4118.974359	4466.153846	4418.974359	4298.974359	3981.538462	1805.000000	1674.000000	62.260000	0.000000	0.000000	0.000000	0.000000	4	4	4	4	4	4	4	4	3	3	4	4	4	4	4	4	0	0	0	1	0.000	0.000
70.000000	4111.282051	4290.256410	4395.897436	3603.589744	4376.923077	4586.153846	4492.307692	4513.333333	4049.743590	4130.769231	4480.512821	4424.615385	4332.307692	3997.435897	1804.000000	1673.000000	62.268000	0.000000	0.000000	0.000000	0.000000	4	4	4	4	4	4	4	4	3	3	4	4	4	4	4	4	0	0	0	1	0.000	0.000
71.000000	4102.051282	4278.974359	4391.282051	3601.025641	4374.871795	4583.076923	4494.358974	4510.769231	4047.692308	4129.230769	4479.487179	4429.230769	4327.179487	3980.000000	1805.000000	1675.000000	62.275000	0.000000	0.000000	0.000000	0.000000	4	4	4	4	4	4	4	4	3	3	4	4	4	4	4	4	0	0	0	1	0.000	0.000
72.000000	4090.256410	4275.897436	4388.205128	3593.846154	4378.974359	4582.564103	4491.282051	4510.769231	4045.128205	4126.153846	4475.384615	4425.128205	4318.461538	3965.641026	1805.000000	1676.000000	62.282000	0.000000	0.000000	0.000000	0.000000	4	4	4	4	4	4	4	4	3	3	4	4	4	4	4	4	0	0	0	1	0.000	0.000
73.000000	4087.692308	4277.948718	4388.717949	3589.743590	4380.000000	4584.102564	4493.333333	4517.948718	4050.256410	4134.358974	4483.076923	4425.128205	4325.128205	3974.871795	1807.000000	1676.000000	62.291000	0.000000	0.000000	0.000000	0.000000	4	4	4	4	4	4	4	4	3	3	4	4	4	4	4	4	0	0	0	1	0.000	0.000
74.000000	4088.205128	4270.769231	4390.769231	3588.717949	4373.333333	4586.666667	4502.051282	4520.512821	4048.205128	4137.435897	4490.769231	4428.717949	4328.205128	3977.948718	1806.000000	1678.000000	62.299000	0.000000	0.000000	0.000000	0.000000	4	4	4	4	4	4	4	4	3	3	4	4	4	4	4	4	0	0	0	1	0.000	0.000
75.000000	4090.256410	4272.307692	4395.897436	3590.769231	4374.871795	4588.205128	4507.179487	4519.487179	4045.128205	4133.333333	4492.307692	4430.256410	4327.692308	3974.358974	1808.000000	1680.000000	62.305000	0.000000	0.000000	0.000000	0.000000	4	4	4	4	4	4	4	4	3	3	4	4	4	4	4	4	0	0	0	1	0.000	0.000
76.000000	4088.717949	4276.923077	4394.871795	3591.282051	4380.512821	4588.717949	4507.179487	4520.512821	4051.282051	4135.897436	4492.307692	4429.743590	4327.179487	3974.871795	1808.000000	1681.000000	62.312000	0.000000	0.000000	0.000000	0.000000	4	4	4	4	4	4	4	4	3	3	4	4	4	4	4	4	0	0	0	1	0.000	0.000
77.000000	4086.666667	4269.743590	4389.230769	3588.205128	4378.974359	4588.205128	4505.128205	4521.025641	4052.820513	4140.000000	4491.794872	4428.717949	4328.717949	3974.871795	1808.000000	1685.000000	62.320000	0.000000	0.000000	0.000000	0.000000	4	4	4	4	4	4	4	4	3	3	4	4	4	4	4	4	0	0	0	1	0.000	0.000
78.000000	4089.743590	4268.205128	4389.743590	3587.179487	4379.487179	4587.692308	4505.128205	4520.000000	4048.717949	4139.487179	4492.307692	4434.358974	4335.897436	3973.846154	1810.000000	1686.000000	62.328000	0.000000	0.000000	0.000000	0.000000	4	4	4	4	4	4	4	4	3	3	4	4	4	4	4	4	0	0	0	1	0.000	0.000
79.000000	4092.820513	4275.384615	4391.282051	3590.256410	4384.102564	4588.717949	4503.589744	4521.538462	4053.846154	4141.025641	4492.307692	4438.461538	4342.564103	3973.846154	1810.000000	1690.000000	62.336000	0.000000	0.000000	0.000000	0.000000	4	4	4	4	4	4	4	4	3	3	4	4	4	4	4	4	0	0	0	1	0.000	0.000
80.000000	4093.846154	4275.384615	4389.230769	3590.769231	4384.102564	4589.230769	4496.410256	4522.564103	4058.461538	4145.128205	4492.307692	4430.256410	4341.538462	3977.948718	1812.000000	1693.000000	62.344000	0.000000	0.000000	0.000000	0.000000	4	4	4	4	4	4	4	4	3	3	4	4	4	4	4	4	0	0	0	1	0.000	0.000
81.000000	4090.256410	4270.769231	4387.692308	3587.692308	4382.051282	4586.666667	4490.256410	4522.051282	4060.000000	4150.769231	4492.307692	4421.538462	4341.025641	3982.051282	1812.000000	1697.000000	62.352000	0.000000	0.000000	0.000000	0.000000	4	4	4	4	4	4	4	4	3	3	4	4	4	4	4	4	0	0	0	1	0.000	0.000
82.000000	4078.974359	4267.179487	4383.589744	3589.230769	4381.025641	4585.128205	4490.256410	4523.589744	4060.512821	4154.358974	4491.282051	4421.538462	4344.615385	3978.974359	1814.000000	1700.000000	62.359000	0.000000	0.000000	0.000000	0.000000	4	4	4	4	4	4	4	4	3	3	4	4	4	4	4	4	0	0	0	1	0.000	0.000
83.000000	4072.307692	4264.615385	4379.487179	3587.179487	4380.512821	4584.102564	4490.256410	4524.615385	4055.897436	4147.692308	4492.307692	4423.589744	4342.564103	3969.743590	1814.000000	1702.000000	62.369000	0.000000	0.000000	0.000000	0.000000	4	4	4	4	4	4	4	4	3	3	4	4	4	4	4	4	0	0	0	1	0.000	0.000
84.000000	4074.871795	4260.512821	4379.487179	3579.487179	4381.025641	4583.076923	4488.717949	4521.025641	4049.230769	4137.948718	4492.820513	4422.564103	4337.948718	3963.076923	1816.000000	1704.000000	62.378000	0.000000	0.000000	0.000000	0.000000	4	4	4	4	4	4	4	4	3	3	4	4	4	4	4	4	0	0	0	1	0.000	0.000
85.000000	4074.358974	4254.358974	4380.512821	3574.871795	4375.384615	4581.538462	4487.692308	4518.974359	4043.589744	4136.410256	4484.615385	4417.435897	4333.846154	3957.948718	1818.000000	1706.000000	62.385000	0.000000	0.000000	0.000000	0.000000	4	4	4	4	4	4	4	4	3	3	4	4	4	4	4	4	0	0	0	1	0.000	0.000
86.000000	4073.333333	4254.871795	4381.538462	3575.897436	4370.769231	4582.051282	4489.230769	4518.974359	4044.102564	4139.487179	4478.461538	4416.923077	4332.820513	3953.846154	1820.000000	1710.000000	62.393000	0.000000	0.000000	0.000000	0.000000	4	4	4	4	4	4	4	4	3	3	4	4	4	4	4	4	0	0	0	1	0.000	0.000
87.000000	4077.948718	4263.589744	4382.564103	3581.538462	4376.923077	4585.128205	4488.717949	4513.846154	4044.615385	4138.461538	4484.615385	4423.589744	4336.410256	3958.461538	1822.000000	1712.000000	62.400000	0.000000	0.000000	0.000000	0.000000	4	4	4	4	4	4	4	4	3	3	4	4	4	4	4	4	0	0	0	1	0.000	0.000
88.000000	4081.538462	4262.051282	4380.000000	3587.179487	4382.051282	4584.102564	4482.051282	4504.615385	4037.948718	4135.897436	4489.230769	4425.128205	4340.512821	3970.769231	1823.000000	1716.000000	62.408000	0.000000	0.000000	0.000000	0.000000	4	4	4	4	4	4	4	4	3	3	4	4	4	4	4	4	0	0	0	1	0.000	0.000
89.000000	4086.153846	4264.102564	4385.128205	3591.282051	4381.025641	4584.102564	4479.487179	4507.179487	4034.871795	4135.384615	4488.717949	4426.666667	4344.615385	3984.102564	1827.000000	1716.000000	62.416000	0.000000	0.000000	0.000000	0.000000	4	4	4	4	4	4	4	4	3	3	4	4	4	4	4	4	0	0	0	1	0.000	0.000
90.000000	4086.153846	4267.692308	4391.282051	3587.692308	4380.000000	4593.333333	4487.179487	4518.974359	4046.153846	4136.410256	4489.743590	4428.205128	4341.538462	3983.076923	1828.000000	1719.000000	62.422000	0.000000	0.000000	0.000000	0.000000	4	4	4	4	4	4	4	4	3	3	4	4	4	4	4	4	0	0	0	1	0.000	0.000
91.000000	4073.846154	4252.307692	4386.153846	3576.923077	4377.435897	4600.512821	4487.692308	4522.564103	4052.820513	4135.897436	4487.692308	4424.615385	4331.794872	3969.230769	1830.000000	1719.000000	62.430000	0.000000	0.000000	0.000000	0.000000	4	4	4	4	4	4	4	4	3	3	4	4	4	4	4	4	0	0	0	1	0.000	0.000
92.000000	4075.384615	4250.256410	4382.564103	3580.000000	4376.923077	4597.435897	4480.000000	4522.051282	4049.743590	4137.948718	4488.205128	4424.615385	4340.000000	3974.871795	1830.000000	1719.000000	62.438000	0.000000	0.000000	0.000000	0.000000	4	4	4	4	4	4	4	4	3	3	4	4	4	4	4	4	0	0	0	1	0.000	0.000
93.000000	4087.179487	4265.641026	4383.589744	3587.692308	4380.512821	4594.871795	4480.512821	4522.051282	4051.794872	4142.564103	4494.871795	4431.282051	4358.974359	3991.794872	1831.000000	1718.000000	62.445000	0.000000	0.000000	0.000000	0.000000	4	4	4	4	4	4	4	4	3	3	4	4	4	4	4	4	0	0	0	1	0.000	0.000
94.000000	4080.512821	4256.923077	4382.564103	3580.512821	4381.025641	4598.974359	4481.538462	4520.512821	4053.846154	4140.512821	4493.846154	4430.769231	4354.358974	3982.564103	1831.000000	1718.000000	62.455000	0.000000	0.000000	0.000000	0.000000	4	4	4	4	4	4	4	4	3	3	4	4	4	4	4	4	0	0	0	1	0.000	0.000
95.000000	4071.794872	4242.051282	4384.615385	3572.307692	4378.974359	4600.512821	4481.538462	4521.025641	4050.769231	4135.897436	4489.230769	4426.666667	4341.025641	3965.641026	1831.000000	1719.000000	62.463000	0.000000	0.000000	0.000000	0.000000	4	4	4	4	4	4	4	4	3	3	4	4	4	4	4	4	0	0	0	1	0.000	0.000
96.000000	4078.461538	4247.179487	4390.769231	3576.410256	4374.358974	4600.000000	4488.717949	4522.564103	4053.333333	4138.461538	4490.769231	4426.153846	4345.641026	3976.410256	1831.000000	1717.000000	62.471000	0.000000	0.000000	0.000000	0.000000	4	4	4	4	4	4	4	4	3	3	4	4	4	4	4	4	0	0	0	1	0.000	0.000
97.000000	4077.435897	4241.538462	4393.333333	3575.897436	4366.153846	4599.487179	4491.794872	4523.076923	4058.974359	4138.461538	4490.256410	4429.743590	4351.282051	3989.230769	1830.000000	1715.000000	62.479000	0.000000	0.000000	0.000000	0.000000	4	4	4	4	4	4	4	4	3	3	4	4	4	4	4	4	0	0	0	1	0.000	0.000
98.000000	4072.820513	4231.794872	4395.384615	3572.307692	4363.076923	4600.000000	4487.179487	4529.230769	4061.538462	4140.512821	4492.820513	4437.948718	4351.282051	3984.102564	1830.000000	1712.000000	62.485000	0.000000	0.000000	0.000000	0.000000	4	4	4	4	4	4	4	4	3	3	4	4	4	4	4	4	0	0	0	1	0.000	0.000
99.000000	4083.076923	4240.512821	4402.051282	3576.410256	4370.769231	4602.051282	4488.717949	4536.410256	4065.641026	4149.743590	4503.076923	4443.076923	4356.410256	3981.538462	1829.000000	1711.000000	62.493000	0.000000	0.000000	0.000000	0.000000	4	4	4	4	4	4	4	4	3	3	4	4	4	4	4	4	0	0	0	1	0.000	0.000
100.000000	4086.666667	4241.538462	4406.666667	3576.410256	4375.897436	4601.538462	4492.307692	4536.923077	4066.153846	4147.692308	4504.615385	4439.487179	4358.461538	3987.179487	1825.000000	1711.000000	62.501000	0.000000	0.000000	0.000000	0.000000	4	4	4	4	4	4	4	4	3	3	4	4	4	4	4	4	0	0	0	1	0.000	0.000
101.000000	4080.000000	4233.846154	4407.692308	3572.820513	4371.282051	4600.512821	4488.205128	4533.846154	4061.025641	4137.948718	4502.564103	4439.487179	4356.923077	3994.358974	1824.000000	1711.000000	62.509000	0.000000	0.000000	0.000000	0.000000	4	4	4	4	4	4	4	4	3	3	4	4	4	4	4	4	0	0	0	1	0.000	0.000
102.000000	4076.923077	4228.205128	4401.538462	3570.769231	4364.102564	4600.512821	4487.179487	4527.179487	4057.435897	4137.948718	4505.128205	4444.102564	4356.923077	3990.256410	1821.000000	1711.000000	62.518000	0.000000	0.000000	0.000000	0.000000	4	4	4	4	4	4	4	4	3	3	4	4	4	4	4	4	0	0	0	1	0.000	0.000
103.000000	4072.820513	4217.948718	4390.769231	3568.717949	4364.615385	4598.974359	4488.717949	4528.205128	4055.897436	4138.974359	4500.000000	4439.487179	4356.410256	3976.923077	1817.000000	1710.000000	62.526000	0.000000	0.000000	0.000000	0.000000	4	4	4	4	4	4	4	4	3	3	4	4	4	4	4	4	0	0	0	1	0.000	0.000
104.000000	4070.256410	4213.333333	4385.641026	3571.282051	4369.230769	4598.461538	4489.743590	4534.871795	4051.794872	4135.897436	4490.769231	4429.230769	4356.410256	3977.435897	1813.000000	1708.000000	62.532000	0.000000	0.000000	0.000000	0.000000	4	4	4	4	4	4	4	4	3	3	4	4	4	4	4	4	0	0	0	1	0.000	0.000
105.000000	4069.743590	4216.923077	4388.717949	3570.256410	4366.153846	4604.102564	4491.282051	4531.282051	4051.282051	4137.435897	4491.794872	4426.153846	4358.974359	3981.538462	1810.000000	1706.000000	62.541000	0.000000	0.000000	0.000000	0.000000	4	4	4	4	4	4	4	4	3	3	4	4	4	4	4	4	0	0	0	1	0.000	0.000
106.000000	4066.666667	4208.717949	4393.846154	3563.076923	4358.974359	4598.974359	4488.717949	4520.000000	4051.794872	4142.051282	4496.923077	4429.230769	4359.487179	3972.307692	1806.000000	1701.000000	62.548000	0.000000	0.000000	0.000000	0.000000	4	4	4	4	4	4	4	4	3	3	4	4	4	4	4	4	0	0	0	1	0.000	0.000
107.000000	4069.230769	4203.076923	4396.923077	3562.051282	4360.000000	4588.205128	4484.615385	4523.076923	4052.820513	4147.179487	4501.538462	4436.410256	4361.538462	3973.333333	1804.000000	1700.000000	62.556000	0.000000	0.000000	0.000000	0.000000	4	4	4	4	4	4	4	4	3	3	4	4	4	4	4	4	0	0	0	1	0.000	0.000
108.000000	4078.461538	4215.384615	4398.461538	3572.307692	4367.692308	4591.282051	4486.153846	4534.358974	4060.000000	4154.871795	4508.717949	4446.153846	4372.820513	3995.384615	1802.000000	1695.000000	62.564000	0.000000	0.000000	0.000000	0.000000	4	4	4	4	4	4	4	4	3	3	4	4	4	4	4	4	0	0	0	1	0.000	0.000
109.000000	4075.384615	4216.923077	4397.435897	3572.820513	4368.205128	4595.897436	4489.230769	4539.487179	4064.102564	4155.897436	4512.820513	4450.256410	4382.051282	4004.615385	1797.000000	1694.000000	62.571000	0.000000	0.000000	0.000000	0.000000	4	4	4	4	4	4	4	4	3	3	4	4	4	4	4	4	0	0	0	1	0.000	0.000
110.000000	4066.666667	4204.615385	4392.307692	3560.512821	4362.564103	4588.717949	4487.692308	4535.897436	4057.948718	4152.820513	4510.256410	4447.692308	4378.461538	3995.384615	1794.000000	1689.000000	62.579000	0.000000	0.000000	0.000000	0.000000	4	4	4	4	4	4	4	4	3	3	4	4	4	4	4	4	0	0	0	1	0.000	0.000
111.000000	4068.717949	4200.512821	4393.846154	3556.410256	4363.076923	4584.615385	4487.179487	4523.589744	4049.743590	4152.820513	4507.692308	4445.641026	4371.282051	3987.179487	1792.000000	1684.000000	62.587000	0.000000	0.000000	0.000000	0.000000	4	4	4	4	4	4	4	4	3	3	4	4	4	4	4	4	0	0	0	1	0.000	0.000
112.000000	4072.820513	4204.615385	4399.487179	3561.025641	4368.717949	4590.769231	4490.256410	4525.128205	4053.333333	4152.820513	4510.256410	4446.153846	4373.333333	3985.641026	1789.000000	1680.000000	62.595000	0.000000	0.000000	0.000000	0.000000	4	4	4	4	4	4	4	4	3	3	4	4	4	4	4	4	0	0	0	1	0.000	0.000
113.000000	4069.743590	4203.076923	4396.923077	3558.461538	4367.179487	4593.846154	4491.282051	4535.384615	4060.512821	4153.333333	4511.282051	4445.128205	4377.435897	3992.307692	1784.000000	1676.000000	62.602000	0.000000	0.000000	0.000000	0.000000	4	4	4	4	4	4	4	4	3	3	4	4	4	4	4	4	0	0	0	1	0.000	0.000
114.000000	4065.128205	4198.974359	4387.179487	3554.871795	4360.000000	4589.230769	4490.256410	4529.230769	4054.871795	4149.230769	4505.641026	4437.948718	4369.743590	3997.948718	1782.000000	1671.000000	62.610000	0.000000	0.000000	0.000000	0.000000	4	4	4	4	4	4	4	4	3	3	4	4	4	4	4	4	0	0	0	1	0.000	0.000
115.000000	4065.641026	4205.641026	4380.000000	3560.000000	4364.102564	4586.666667	4488.717949	4522.051282	4045.641026	4146.153846	4502.051282	4430.769231	4366.153846	3991.282051	1779.000000	1665.000000	62.617000	0.000000	0.000000	0.000000	0.000000	4	4	4	4	4	4	4	4	3	3	4	4	4	4	4	4	0	0	0	1	0.000	0.000
116.000000	4070.256410	4216.410256	4383.589744	3561.025641	4373.846154	4589.230769	4489.230769	4528.205128	4047.692308	4149.230769	4505.128205	4434.358974	4374.871795	3983.589744	1777.000000	1662.000000	62.625000	0.000000	0.000000	0.000000	0.000000	4	4	4	4	4	4	4	4	3	3	4	4	4	4	4	4	0	0	0	1	0.000	0.000
117.000000	4074.358974	4216.923077	4393.333333	3555.897436	4373.333333	4590.256410	4490.256410	4532.820513	4054.871795	4152.820513	4507.692308	4441.025641	4382.564103	3993.846154	1775.000000	1660.000000	62.635000	0.000000	0.000000	0.000000	0.000000	4	4	4	4	4	4	4	4	3	3	4	4	4	4	4	4	0	0	0	1	0.000	0.000
118.000000	4076.410256	4218.461538	4397.435897	3561.538462	4370.256410	4586.153846	4491.794872	4533.846154	4059.487179	4155.384615	4509.743590	4441.025641	4386.153846	4007.692308	1773.000000	1663.000000	62.643000	0.000000	0.000000	0.000000	0.000000	4	4	4	4	4	4	4	4	3	3	4	4	4	4	4	4	0	0	0	1	0.000	0.000
119.000000	4077.948718	4228.205128	4395.897436	3574.358974	4373.846154	4584.102564	4492.307692	4537.948718	4058.461538	4155.897436	4510.769231	4443.589744	4387.692308	4004.102564	1773.000000	1665.000000	62.651000	0.000000	0.000000	0.000000	0.000000	4	4	4	4	4	4	4	4	3	3	4	4	4	4	4	4	0	0	0	1	0.000	0.000
120.000000	4079.487179	4232.820513	4396.410256	3572.307692	4372.307692	4585.128205	4491.794872	4536.410256	4058.461538	4153.846154	4509.230769	4448.717949	4386.666667	4001.025641	1767.000000	1670.000000	62.659000	0.000000	0.000000	0.000000	0.000000	4	4	4	4	4	4	4	4	3	3	4	4	4	4	4	4	0	0	0	1	0.000	0.000
121.000000	4083.076923	4228.205128	4397.948718	3560.512821	4366.153846	4583.589744	4491.794872	4535.897436	4061.538462	4153.333333	4509.230769	4448.717949	4385.128205	4011.282051	1765.000000	1672.000000	62.665000	0.000000	0.000000	0.000000	0.000000	4	4	4	4	4	4	4	4	3	3	4	4	4	4	4	4	0	0	0	1	0.000	0.000
122.000000	4086.666667	4229.743590	4392.307692	3557.948718	4363.589744	4577.435897	4491.282051	4537.435897	4057.948718	4153.333333	4508.717949	4445.641026	4389.230769	4013.333333	1761.000000	1674.000000	62.673000	0.000000	0.000000	0.000000	0.000000	4	4	4	4	4	4	4	4	3	3	4	4	4	4	4	4	0	0	0	1	0.000	0.000
123.000000	4089.743590	4231.282051	4387.692308	3564.102564	4362.051282	4571.282051	4487.179487	4528.205128	4050.256410	4148.717949	4506.153846	4444.615385	4392.307692	4010.256410	1756.000000	1679.000000	62.681000	0.000000	0.000000	0.000000	0.000000	4	4	4	4	4	4	4	4	3	3	4	4	4	4	4	4	0	0	0	1	0.000	0.000
124.000000	4095.897436	4231.794872	4392.820513	3570.256410	4365.128205	4570.769231	4484.615385	4522.564103	4049.230769	4147.179487	4506.153846	4443.076923	4394.358974	4028.717949	1753.000000	1679.000000	62.689000	0.000000	0.000000	0.000000	0.000000	4	4	4	4	4	4	4	4	3	3	4	4	4	4	4	4	0	0	0	1	0.000	0.000
125.000000	4104.615385	4238.461538	4397.435897	3572.820513	4368.717949	4571.282051	4482.051282	4526.666667	4050.769231	4150.256410	4508.205128	4449.230769	4402.564103	4044.615385	1750.000000	1678.000000	62.698000	0.000000	0.000000	0.000000	0.000000	4	4	4	4	4	4	4	4	3	3	4	4	4	4	4	4	0	0	0	1	0.000	0.000
126.000000	4117.948718	4246.153846	4396.923077	3570.769231	4365.641026	4569.230769	4482.051282	4525.641026	4049.743590	4151.794872	4512.307692	4458.974359	4409.230769	4043.076923	1748.000000	1672.000000	62.705000	0.000000	0.000000	0.000000	0.000000	4	4	4	4	4	4	4	4	3	3	4	4	4	4	4	4	0	0	0	1	0.000	0.000
127.000000	4135.897436	4252.820513	4402.051282	3572.820513	4360.512821	4568.205128	4482.564103	4524.615385	4048.205128	4150.769231	4519.487179	4460.000000	4417.435897	4063.589744	1748.000000	1664.000000	62.713000	0.000000	0.000000	0.000000	0.000000	4	4	4	4	4	4	4	4	3	3	4	4	4	4	4	4	0	0	0	1	0.000	0.000
128.000000	4158.974359	4258.974359	4410.256410	3569.743590	4348.717949	4566.153846	4483.076923	4522.564103	4042.051282	4145.128205	4523.076923	4462.051282	4429.230769	4099.487179	1747.000000	1661.000000	62.721000	0.000000	0.000000	0.000000	0.000000	4	4	4	4	4	4	4	4	3	3	4	4	4	4	4	4	0	0	0	1	0.000	0.000
0.000000	4191.794872	4267.179487	4415.897436	3567.692308	4331.282051	4558.461538	4480.512821	4513.333333	4029.230769	4133.846154	4521.538462	4470.256410	4438.974359	4123.076923	1747.000000	1668.000000	62.728000	0.000000	0.000000	0.000000	0.000000	4	4	4	4	4	4	4	4	3	3	4	4	4	4	4	4	0	0	0	1	0.000	0.000
1.000000	4235.384615	4283.589744	4426.153846	3580.512821	4329.743590	4554.358974	4479.487179	4506.666667	4023.076923	4129.230769	4527.179487	4477.435897	4451.282051	4152.820513	1749.000000	1674.000000	62.736000	0.000000	0.000000	0.000000	0.000000	4	4	4	4	4	4	4	4	3	3	4	4	4	4	4	4	0	0	0	1	0.000	0.000
2.000000	4272.820513	4304.102564	4440.000000	3593.846154	4342.051282	4561.025641	4483.076923	4509.743590	4027.692308	4134.871795	4538.974359	4484.615385	4470.769231	4194.358974	1748.000000	1678.000000	62.743000	0.000000	0.000000	0.000000	0.000000	4	4	4	4	4	4	4	4	3	3	4	4	4	4	4	4	0	0	0	1	0.000	0.000
3.000000	4292.820513	4314.871795	4446.153846	3596.410256	4341.025641	4562.051282	4484.102564	4510.256410	4033.846154	4137.948718	4542.051282	4491.794872	4483.076923	4217.948718	1750.000000	1677.000000	62.751000	0.000000	0.000000	0.000000	0.000000	4	4	4	4	4	4	4	4	3	3	4	4	4	4	4	4	0	0	0	1	0.000	0.000
4.000000	4300.000000	4314.871795	4444.615385	3596.923077	4332.820513	4553.846154	4480.000000	4506.153846	4028.717949	4135.384615	4538.974359	4490.769231	4478.461538	4217.948718	1750.000000	1676.000000	62.759000	0.000000	0.000000	0.000000	0.000000	4	4	4	4	4	4	4	4	3	3	4	4	4	4	4	4	0	0	0	1	0.000	0.000
5.000000	4301.025641	4316.923077	4444.102564	3603.589744	4334.871795	4556.923077	4476.923077	4504.615385	4024.615385	4135.384615	4540.000000	4488.717949	4481.538462	4217.948718	1750.000000	1675.000000	62.767000	0.000000	0.000000	0.000000	0.000000	4	4	4	4	4	4	4	4	3	3	4	4	4	4	4	4	0	0	0	1	0.000	0.000
6.000000	4294.871795	4313.333333	4447.179487	3603.589744	4341.538462	4568.205128	4481.538462	4506.666667	4029.230769	4139.487179	4542.051282	4495.384615	4491.282051	4220.000000	1751.000000	1669.000000	62.775000	0.000000	0.000000	0.000000	0.000000	4	4	4	4	4	4	4	4	3	3	4	4	4	4	4	4	0	0	0	1	0.000	0.000
7.000000	4273.333333	4303.076923	4448.205128	3595.384615	4342.564103	4569.743590	4485.128205	4509.230769	4030.256410	4140.000000	4540.000000	4493.333333	4483.076923	4206.153846	1753.000000	1664.000000	62.783000	0.000000	0.000000	0.000000	0.000000	4	4	4	4	4	4	4	4	3	3	4	4	4	4	4	4	0	0	0	1	0.000	0.000
8.000000	4242.564103	4287.179487	4439.487179	3591.282051	4341.025641	4567.179487	4483.076923	4509.743590	4028.717949	4138.461538	4535.897436	4479.487179	4465.641026	4177.948718	1754.000000	1652.000000	62.790000	0.000000	0.000000	0.000000	0.000000	4	4	4	4	4	4	4	4	3	3	4	4	4	4	4	4	0	0	0	1	0.000	0.000
9.000000	4220.512821	4272.820513	4427.692308	3587.179487	4341.025641	4570.256410	4486.153846	4506.666667	4033.333333	4138.974359	4528.205128	4475.897436	4455.384615	4155.384615	1756.000000	1646.000000	62.798000	0.000000	0.000000	0.000000	0.000000	4	4	4	4	4	4	4	4	3	3	4	4	4	4	4	4	1	0	0	0	1.000	1.000
10.000000	4204.102564	4263.589744	4425.128205	3579.487179	4336.410256	4572.820513	4489.743590	4508.205128	4036.410256	4138.461538	4519.487179	4477.435897	4443.076923	4137.948718	1757.000000	1645.000000	62.806000	0.000000	0.000000	0.000000	0.000000	4	4	4	4	4	4	4	4	3	3	4	4	4	4	4	4	1	0	0	0	1.000	1.000
11.000000	4185.641026	4253.333333	4425.128205	3568.717949	4328.717949	4569.230769	4490.256410	4514.358974	4035.897436	4136.923077	4519.487179	4474.358974	4426.666667	4112.307692	1757.000000	1649.000000	62.814000	0.000000	0.000000	0.000000	0.000000	4	4	4	4	4	4	4	4	3	3	4	4	4	4	4	4	1	0	0	0	1.000	1.000
12.000000	4169.743590	4244.615385	4418.974359	3561.025641	4326.153846	4567.692308	4490.769231	4514.871795	4036.923077	4141.025641	4522.564103	4474.358974	4419.487179	4088.717949	1759.000000	1646.000000	62.822000	0.000000	0.000000	0.000000	0.000000	4	4	4	4	4	4	4	4	3	3	4	4	4	4	4	4	1	0	0	0	1.000	1.000
13.000000	4153.846154	4237.435897	4411.794872	3557.435897	4325.128205	4567.179487	4492.820513	4507.692308	4029.230769	4139.487179	4510.769231	4471.794872	4410.769231	4077.435897	1758.000000	1643.000000	62.830000	0.000000	0.000000	0.000000	0.000000	4	4	4	4	4	4	4	4	3	3	4	4	4	4	4	4	1	0	0	0	1.000	1.000
14.000000	4137.435897	4233.333333	4406.153846	3555.897436	4326.666667	4561.538462	4489.743590	4503.589744	4016.410256	4125.641026	4491.794872	4457.435897	4390.769231	4069.743590	1759.000000	1642.000000	62.837000	0.000000	0.000000	0.000000	0.000000	4	4	4	4	4	4	4	4	3	3	4	4	4	4	4	4	1	0	0	0	1.000	1.000
15.000000	4131.282051	4233.333333	4401.538462	3556.410256	4333.333333	4554.358974	4490.256410	4504.102564	4015.384615	4118.461538	4487.179487	4450.256410	4378.974359	4062.051282	1760.000000	1641.000000	62.844000	0.000000	0.000000	0.000000	0.000000	4	4	4	4	4	4	4	4	3	3	4	4	4	4	4	4	1	0	0	0	1.000	1.000
16.000000	4131.282051	4234.871795	4402.051282	3557.435897	4334.358974	4555.384615	4493.846154	4504.102564	4021.538462	4123.589744	4493.846154	4459.487179	4383.076923	4053.333333	1760.000000	1640.000000	62.852000	0.000000	0.000000	0.000000	0.000000	4	4	4	4	4	4	4	4	3	3	4	4	4	4	4	4	1	0	0	0	1.000	1.000
17.000000	4124.615385	4233.846154	4406.666667	3558.974359	4330.769231	4561.025641	4492.820513	4504.102564	4022.051282	4130.256410	4494.358974	4462.564103	4382.564103	4043.589744	1760.000000	1637.000000	62.860000	0.000000	0.000000	0.000000	0.000000	4	4	4	4	4	4	4	4	3	3	4	4	4	4	4	4	1	0	0	0	1.000	1.000
18.000000	4114.358974	4232.307692	4404.102564	3558.461538	4335.384615	4563.076923	4490.769231	4506.153846	4021.025641	4135.384615	4490.769231	4454.871795	4374.358974	4031.794872	1760.000000	1633.000000	62.868000	0.000000	0.000000	0.000000	0.000000	4	4	4	4	4	4	4	4	3	3	4	4	4	4	4	4	1	0	0	0	1.000	1.000
19.000000	4109.743590	4234.358974	4397.948718	3558.974359	4343.589744	4565.128205	4490.769231	4507.692308	4025.641026	4137.435897	4490.769231	4451.282051	4371.794872	4024.102564	1760.000000	1627.000000	62.875000	0.000000	0.000000	0.000000	0.000000	4	4	4	4	4	4	4	4	3	3	4	4	4	4	4	4	1	0	0	0	1.000	1.000
20.000000	4105.641026	4234.871795	4398.461538	3562.051282	4346.666667	4567.179487	4491.282051	4510.256410	4031.282051	4136.410256	4490.256410	4451.794872	4374.358974	4021.025641	1759.000000	1625.000000	62.883000	0.000000	0.000000	0.000000	0.000000	4	4	4	4	4	4	4	4	3	3	4	4	4	4	4	4	1	0	0	0	1.000	1.000
21.000000	4096.923077	4232.307692	4400.000000	3560.000000	4345.128205	4567.692308	4495.384615	4507.179487	4030.256410	4135.384615	4490.256410	4448.205128	4370.769231	4012.307692	1758.000000	1625.000000	62.891000	0.000000	0.000000	0.000000	0.000000	4	4	4	4	4	4	4	4	3	3	4	4	4	4	4	4	1	0	0	0	1.000	1.000
22.000000	4089.743590	4229.230769	4396.410256	3556.410256	4343.076923	4566.666667	4500.000000	4496.410256	4024.615385	4131.794872	4488.717949	4444.102564	4361.538462	4002.564103	1757.000000	1628.000000	62.899000	0.000000	0.000000	0.000000	0.000000	4	4	4	4	4	4	4	4	3	3	4	4	4	4	4	4	1	0	0	0	1.000	1.000
23.000000	4088.717949	4232.307692	4394.871795	3555.384615	4347.179487	4566.666667	4501.538462	4491.282051	4022.051282	4125.641026	4482.564103	4443.589744	4356.923077	4002.051282	1758.000000	1628.000000	62.908000	0.000000	0.000000	0.000000	0.000000	4	4	4	4	4	4	4	4	3	3	4	4	4	4	4	4	1	0	0	0	1.000	1.000
24.000000	4085.641026	4234.871795	4395.384615	3556.923077	4353.846154	4567.179487	4504.615385	4493.846154	4021.025641	4123.589744	4475.897436	4444.102564	4354.871795	3998.461538	1759.000000	1627.000000	62.917000	0.000000	0.000000	0.000000	0.000000	4	4	4	4	4	4	4	4	3	3	4	4	4	4	4	4	1	0	0	0	1.000	1.000
25.000000	4077.435897	4234.358974	4386.666667	3555.897436	4350.256410	4564.102564	4508.717949	4491.282051	4020.000000	4121.538462	4474.871795	4443.076923	4347.179487	3981.025641	1763.000000	1619.000000	62.924000	0.000000	0.000000	0.000000	0.000000	4	4	4	4	4	4	4	4	3	3	4	4	4	4	4	4	1	0	0	0	1.000	1.000
26.000000	4072.307692	4230.769231	4378.461538	3554.871795	4342.564103	4563.589744	4512.820513	4488.717949	4018.461538	4118.461538	4476.923077	4440.000000	4341.025641	3968.717949	1764.000000	1613.000000	62.932000	0.000000	0.000000	0.000000	0.000000	4	4	4	4	4	4	4	4	3	3	4	4	4	4	4	4	1	0	0	0	1.000	1.000
27.000000	4067.692308	4221.025641	4381.025641	3552.820513	4340.512821	4564.102564	4518.461538	4489.230769	4014.358974	4114.871795	4469.230769	4433.333333	4336.923077	3973.846154	1766.000000	1602.000000	62.938000	0.000000	0.000000	0.000000	0.000000	4	4	4	4	4	4	4	4	3	3	4	4	4	4	4	4	1	0	0	0	1.000	1.000
28.000000	4063.589744	4214.871795	4378.461538	3544.615385	4340.000000	4563.589744	4514.871795	4480.000000	4007.692308	4107.179487	4455.897436	4427.692308	4327.692308	3972.820513	1766.000000	1590.000000	62.946000	0.000000	0.000000	0.000000	0.000000	4	4	4	4	4	4	4	4	3	3	4	4	4	4	4	4	1	0	0	0	1.000	1.000
29.000000	4060.000000	4217.435897	4370.256410	3543.076923	4339.487179	4565.641026	4506.153846	4470.256410	4002.051282	4101.538462	4453.333333	4428.205128	4318.974359	3958.461538	1766.000000	1585.000000	62.954000	0.000000	0.000000	0.000000	0.000000	4	4	4	4	4	4	4	4	3	3	4	4	4	4	4	4	0	0	0	1	0.000	0.000
30.000000	4058.461538	4216.923077	4373.333333	3552.820513	4340.000000	4569.230769	4509.230769	4477.435897	4009.230769	4108.717949	4460.512821	4433.846154	4324.615385	3952.307692	1766.000000	1594.000000	62.961000	0.000000	0.000000	0.000000	0.000000	4	4	4	4	4	4	4	4	3	3	4	4	4	4	4	4	0	0	0	1	0.000	0.000
31.000000	4063.076923	4218.461538	4382.051282	3558.461538	4341.538462	4570.769231	4513.333333	4489.743590	4020.000000	4121.025641	4462.051282	4433.846154	4333.846154	3965.641026	1766.000000	1603.000000	62.971000	0.000000	0.000000	0.000000	0.000000	4	4	4	4	4	4	4	4	3	3	4	4	4	4	4	4	0	0	0	1	0.000	0.000
32.000000	4067.692308	4228.717949	4380.512821	3555.384615	4339.487179	4570.256410	4512.820513	4488.717949	4019.487179	4121.538462	4456.923077	4427.179487	4329.230769	3972.307692	1764.000000	1609.000000	62.979000	0.000000	0.000000	0.000000	0.000000	4	4	4	4	4	4	4	4	3	3	4	4	4	4	4	4	0	0	0	1	0.000	0.000
33.000000	4066.666667	4234.871795	4376.923077	3558.461538	4340.000000	4572.307692	4518.461538	4487.179487	4017.948718	4118.461538	4463.589744	4426.666667	4325.641026	3966.666667	1765.000000	1615.000000	62.987000	0.000000	0.000000	0.000000	0.000000	4	4	4	4	4	4	4	4	3	3	4	4	4	4	4	4	0	0	0	1	0.000	0.000
34.000000	4069.230769	4235.384615	4382.564103	3561.538462	4349.230769	4573.333333	4525.641026	4498.461538	4029.743590	4124.615385	4475.384615	4433.846154	4337.948718	3975.384615	1763.000000	1622.000000	62.995000	0.000000	0.000000	0.000000	0.000000	4	4	4	4	4	4	4	4	3	3	4	4	4	4	4	4	0	0	0	1	0.000	0.000
35.000000	4069.230769	4231.282051	4385.641026	3556.923077	4349.230769	4570.769231	4526.666667	4507.692308	4037.435897	4127.692308	4471.794872	4434.358974	4337.435897	3973.846154	1763.000000	1632.000000	63.003000	0.000000	0.000000	0.000000	0.000000	4	4	4	4	4	4	4	4	3	3	4	4	4	4	4	4	0	0	0	1	0.000	0.000
36.000000	4060.512821	4226.666667	4377.948718	3553.333333	4338.974359	4566.666667	4524.102564	4505.128205	4030.256410	4120.000000	4457.435897	4425.128205	4317.948718	3944.102564	1763.000000	1637.000000	63.010000	0.000000	0.000000	0.000000	0.000000	4	4	4	4	4	4	4	4	3	3	4	4	4	4	4	4	0	0	0	1	0.000	0.000
37.000000	4057.948718	4230.256410	4375.897436	3554.871795	4345.641026	4567.179487	4524.102564	4502.051282	4029.230769	4122.051282	4458.974359	4422.051282	4320.512821	3942.051282	1760.000000	1640.000000	63.019000	0.000000	0.000000	0.000000	0.000000	4	4	4	4	4	4	4	4	3	3	4	4	4	4	4	4	0	0	0	1	0.000	0.000
38.000000	4062.564103	4234.358974	4382.564103	3556.923077	4359.487179	4571.282051	4524.615385	4503.589744	4035.897436	4135.897436	4472.307692	4426.666667	4334.871795	3969.230769	1760.000000	1635.000000	63.026000	0.000000	0.000000	0.000000	0.000000	4	4	4	4	4	4	4	4	3	3	4	4	4	4	4	4	0	0	0	1	0.000	0.000
39.000000	4060.512821	4229.743590	4383.589744	3557.948718	4358.461538	4570.769231	4524.102564	4505.128205	4035.897436	4140.512821	4474.871795	4425.641026	4331.794872	3966.666667	1758.000000	1631.000000	63.034000	0.000000	0.000000	0.000000	0.000000	4	4	4	4	4	4	4	4	3	3	4	4	4	4	4	4	0	0	0	1	0.000	0.000
40.000000	4057.948718	4230.256410	4381.025641	3558.461538	4358.974359	4570.256410	4521.025641	4504.102564	4033.846154	4134.358974	4471.282051	4421.025641	4328.717949	3953.846154	1756.000000	1630.000000	63.042000	0.000000	0.000000	0.000000	0.000000	4	4	4	4	4	4	4	4	3	3	4	4	4	4	4	4	0	0	0	1	0.000	0.000
41.000000	4061.025641	4232.307692	4382.564103	3560.512821	4363.589744	4575.384615	4520.000000	4502.564103	4034.871795	4133.333333	4471.794872	4421.025641	4330.769231	3962.051282	1752.000000	1640.000000	63.049000	0.000000	0.000000	0.000000	0.000000	4	4	4	4	4	4	4	4	3	3	4	4	4	4	4	4	0	0	0	1	0.000	0.000
42.000000	4057.435897	4227.179487	4385.128205	3560.512821	4358.974359	4580.512821	4520.000000	4502.051282	4035.384615	4133.333333	4472.820513	4422.564103	4327.179487	3965.128205	1749.000000	1650.000000	63.057000	0.000000	0.000000	0.000000	0.000000	4	4	4	4	4	4	4	4	3	3	4	4	4	4	4	4	0	0	0	1	0.000	0.000
43.000000	4056.410256	4227.692308	4385.641026	3560.000000	4356.410256	4583.589744	4520.000000	4503.076923	4035.384615	4129.230769	4472.307692	4423.589744	4325.128205	3959.487179	1747.000000	1653.000000	63.066000	0.000000	0.000000	0.000000	0.000000	4	4	4	4	4	4	4	4	3	3	4	4	4	4	4	4	0	0	0	1	0.000	0.000
44.000000	4059.487179	4232.307692	4385.641026	3559.487179	4360.000000	4584.615385	4520.000000	4502.564103	4034.871795	4127.692308	4468.205128	4423.589744	4328.717949	3954.871795	1745.000000	1658.000000	63.072000	0.000000	0.000000	0.000000	0.000000	4	4	4	4	4	4	4	4	3	3	4	4	4	4	4	4	0	0	0	1	0.000	0.000
45.000000	4056.923077	4233.333333	4382.564103	3560.000000	4357.948718	4580.512821	4518.461538	4501.538462	4036.923077	4129.743590	4462.051282	4418.461538	4325.641026	3949.230769	1741.000000	1662.000000	63.080000	0.000000	0.000000	0.000000	0.000000	4	4	4	4	4	4	4	4	3	3	4	4	4	4	4	4	0	0	0	1	0.000	0.000
46.000000	4052.820513	4233.333333	4374.358974	3560.000000	4356.923077	4580.512821	4519.487179	4505.128205	4041.025641	4133.846154	4459.487179	4413.333333	4324.615385	3953.333333	1738.000000	1669.000000	63.087000	0.000000	0.000000	0.000000	0.000000	4	4	4	4	4	4	4	4	3	3	4	4	4	4	4	4	0	0	0	1	0.000	0.000
47.000000	4047.179487	4227.179487	4364.102564	3554.871795	4357.435897	4583.589744	4522.051282	4503.589744	4040.000000	4132.307692	4460.512821	4411.282051	4326.153846	3955.384615	1737.000000	1670.000000	63.094000	0.000000	0.000000	0.000000	0.000000	4	4	4	4	4	4	4	4	3	3	4	4	4	4	4	4	0	0	0	1	0.000	0.000
48.000000	4036.410256	4216.923077	4355.897436	3543.589744	4348.717949	4578.974359	4521.538462	4493.846154	4032.307692	4124.615385	4458.974359	4406.153846	4318.461538	3938.461538	1734.000000	1673.000000	63.102000	0.000000	0.000000	0.000000	0.000000	4	4	4	4	4	4	4	4	3	3	4	4	4	4	4	4	0	0	0	1	0.000	0.000
49.000000	4025.641026	4212.820513	4350.256410	3540.000000	4337.435897	4570.256410	4517.948718	4495.384615	4029.743590	4119.487179	4455.384615	4400.000000	4311.794872	3929.743590	1734.000000	1670.000000	63.110000	0.000000	0.000000	0.000000	0.000000	4	4	4	4	4	4	4	4	3	3	4	4	4	4	4	4	0	0	0	1	0.000	0.000
50.000000	4028.717949	4215.897436	4353.846154	3550.256410	4340.512821	4570.256410	4517.948718	4505.128205	4030.256410	4121.025641	4456.923077	4403.076923	4315.384615	3943.076923	1733.000000	1666.000000	63.119000	0.000000	0.000000	0.000000	0.000000	4	4	4	4	4	4	4	4	3	3	4	4	4	4	4	4	0	0	0	1	0.000	0.000
51.000000	4037.948718	4218.974359	4363.589744	3560.000000	4351.282051	4579.487179	4519.487179	4506.153846	4033.846154	4128.205128	4461.538462	4411.282051	4324.102564	3951.282051	1734.000000	1660.000000	63.127000	0.000000	0.000000	0.000000	0.000000	4	4	4	4	4	4	4	4	3	3	4	4	4	4	4	4	0	0	0	1	0.000	0.000
52.000000	4037.948718	4218.461538	4364.102564	3560.512821	4351.794872	4584.102564	4518.974359	4505.641026	4042.051282	4133.846154	4462.564103	4416.410256	4327.179487	3945.128205	1735.000000	1651.000000	63.134000	0.000000	0.000000	0.000000	0.000000	4	4	4	4	4	4	4	4	3	3	4	4	4	4	4	4	0	0	0	1	0.000	0.000
53.000000	4033.846154	4218.974359	4357.435897	3558.974359	4351.794872	4583.076923	4520.000000	4507.179487	4041.538462	4136.410256	4458.974359	4415.384615	4324.615385	3938.974359	1737.000000	1639.000000	63.142000	0.000000	0.000000	0.000000	0.000000	4	4	4	4	4	4	4	4	3	3	4	4	4	4	4	4	0	0	0	1	0.000	0.000
54.000000	4035.384615	4220.000000	4358.974359	3558.974359	4356.923077	4585.641026	4522.051282	4498.974359	4035.897436	4138.461538	4459.487179	4413.846154	4320.512821	3943.589744	1739.000000	1628.000000	63.149000	0.000000	0.000000	0.000000	0.000000	4	4	4	4	4	4	4	4	3	3	4	4	4	4	4	4	0	0	0	1	0.000	0.000
55.000000	4032.307692	4218.974359	4360.512821	3557.948718	4354.871795	4589.743590	4521.025641	4491.794872	4034.871795	4134.358974	4457.948718	4412.307692	4314.871795	3945.641026	1742.000000	1620.000000	63.157000	0.000000	0.000000	0.000000	0.000000	4	4	4	4	4	4	4	4	3	3	4	4	4	4	4	4	0	0	0	1	0.000	0.000
56.000000	4027.179487	4220.512821	4354.871795	3556.923077	4347.179487	4587.179487	4520.000000	4493.333333	4030.769231	4124.615385	4453.333333	4410.256410	4309.230769	3938.974359	1743.000000	1616.000000	63.165000	0.000000	0.000000	0.000000	0.000000	4	4	4	4	4	4	4	4	3	3	4	4	4	4	4	4	0	0	0	1	0.000	0.000
57.000000	4037.435897	4230.256410	4358.461538	3559.487179	4344.102564	4584.615385	4522.051282	4493.333333	4026.153846	4124.102564	4454.871795	4412.820513	4310.256410	3942.051282	1743.000000	1621.000000	63.173000	0.000000	0.000000	0.000000	0.000000	4	4	4	4	4	4	4	4	3	3	4	4	4	4	4	4	0	0	0	1	0.000	0.000
58.000000	4045.128205	4233.846154	4365.641026	3560.000000	4340.000000	4583.589744	4518.461538	4492.307692	4028.717949	4127.692308	4453.846154	4414.871795	4313.846154	3944.102564	1744.000000	1625.000000	63.180000	0.000000	0.000000	0.000000	0.000000	4	4	4	4	4	4	4	4	3	3	4	4	4	4	4	4	0	0	0	1	0.000	0.000
59.000000	4036.923077	4228.205128	4359.487179	3555.384615	4331.282051	4577.948718	4520.000000	4488.717949	4025.641026	4120.512821	4443.589744	4406.666667	4305.641026	3931.282051	1743.000000	1631.000000	63.188000	0.000000	0.000000	0.000000	0.000000	4	4	4	4	4	4	4	4	3	3	4	4	4	4	4	4	0	0	0	1	0.000	0.000
60.000000	4031.794872	4228.717949	4349.230769	3553.846154	4335.384615	4578.974359	4531.282051	4487.179487	4020.512821	4118.461538	4439.487179	4396.410256	4298.974359	3927.179487	1743.000000	1635.000000	63.196000	0.000000	0.000000	0.000000	0.000000	4	4	4	4	4	4	4	4	3	3	4	4	4	4	4	4	0	0	0	1	0.000	0.000
61.000000	4036.923077	4234.871795	4348.717949	3560.000000	4352.820513	4585.128205	4541.538462	4492.307692	4026.666667	4125.128205	4444.615385	4400.512821	4305.641026	3932.307692	1741.000000	1641.000000	63.204000	0.000000	0.000000	0.000000	0.000000	4	4	4	4	4	4	4	4	3	3	4	4	4	4	4	4	0	0	0	1	0.000	0.000
62.000000	4040.512821	4237.435897	4353.333333	3564.102564	4362.051282	4586.666667	4544.615385	4495.384615	4032.820513	4123.589744	4442.564103	4407.179487	4304.102564	3926.153846	1741.000000	1645.000000	63.212000	0.000000	0.000000	0.000000	0.000000	4	4	4	4	4	4	4	4	3	3	4	4	4	4	4	4	0	0	0	1	0.000	0.000
63.000000	4038.461538	4232.307692	4353.846154	3559.487179	4357.948718	4585.641026	4546.666667	4493.333333	4032.307692	4117.435897	4437.435897	4404.102564	4292.820513	3924.615385	1741.000000	1646.000000	63.219000	0.000000	0.000000	0.000000	0.000000	4	4	4	4	4	4	4	4	3	3	4	4	4	4	4	4	0	0	0	1	0.000	0.000
64.000000	4034.871795	4221.538462	4351.282051	3555.384615	4353.846154	4587.179487	4548.205128	4497.948718	4036.410256	4121.538462	4442.564103	4403.076923	4293.846154	3933.846154	1740.000000	1647.000000	63.227000	0.000000	0.000000	0.000000	0.000000	4	4	4	4	4	4	4	4	3	3	4	4	4	4	4	4	0	0	0	1	0.000	0.000
65.000000	4034.871795	4215.897436	4348.717949	3555.897436	4349.230769	4584.102564	4542.564103	4496.923077	4031.794872	4123.076923	4441.538462	4404.102564	4296.410256	3927.179487	1739.000000	1640.000000	63.237000	0.000000	0.000000	0.000000	0.000000	4	4	4	4	4	4	4	4	3	3	4	4	4	4	4	4	0	0	0	1	0.000	0.000
66.000000	4035.384615	4215.384615	4347.179487	3552.307692	4343.076923	4575.384615	4535.897436	4487.692308	4020.000000	4111.282051	4429.230769	4398.461538	4284.615385	3912.820513	1739.000000	1630.000000	63.245000	0.000000	0.000000	0.000000	0.000000	4	4	4	4	4	4	4	4	3	3	4	4	4	4	4	4	0	0	0	1	0.000	0.000
67.000000	4033.333333	4213.333333	4349.230769	3547.692308	4346.666667	4576.410256	4538.974359	4496.410256	4027.692308	4108.717949	4427.692308	4394.871795	4276.923077	3910.769231	1739.000000	1620.000000	63.253000	0.000000	0.000000	0.000000	0.000000	4	4	4	4	4	4	4	4	3	3	4	4	4	4	4	4	0	0	0	1	0.000	0.000
68.000000	4035.897436	4212.820513	4351.282051	3552.307692	4352.820513	4586.666667	4541.025641	4507.179487	4037.948718	4117.948718	4440.512821	4396.410256	4281.538462	3916.923077	1738.000000	1614.000000	63.261000	0.000000	0.000000	0.000000	0.000000	4	4	4	4	4	4	4	4	3	3	4	4	4	4	4	4	0	0	0	1	0.000	0.000
69.000000	4042.564103	4215.384615	4348.717949	3555.384615	4346.666667	4586.153846	4536.923077	4493.846154	4024.615385	4117.435897	4444.615385	4395.897436	4283.589744	3920.512821	1739.000000	1607.000000	63.268000	0.000000	0.000000	0.000000	0.000000	4	4	4	4	4	4	4	4	3	3	4	4	4	4	4	4	0	0	0	1	0.000	0.000
70.000000	4045.641026	4215.384615	4351.282051	3552.307692	4340.000000	4577.435897	4541.025641	4485.641026	4011.282051	4111.794872	4440.000000	4395.384615	4280.512821	3915.897436	1736.000000	1603.000000	63.276000	0.000000	0.000000	0.000000	0.000000	4	4	4	4	4	4	4	4	3	3	4	4	4	4	4	4	0	0	0	1	0.000	0.000
71.000000	4049.743590	4213.333333	4361.025641	3551.794872	4346.153846	4581.538462	4550.256410	4501.538462	4023.589744	4116.410256	4441.025641	4397.435897	4280.000000	3913.333333	1736.000000	1599.000000	63.284000	0.000000	0.000000	0.000000	0.000000	4	4	4	4	4	4	4	4	3	3	4	4	4	4	4	4	0	0	0	1	0.000	0.000
72.000000	4057.435897	4215.897436	4367.179487	3556.410256	4357.948718	4589.230769	4553.333333	4509.230769	4031.794872	4121.538462	4444.615385	4402.051282	4287.179487	3925.128205	1733.000000	1596.000000	63.292000	0.000000	0.000000	0.000000	0.000000	4	4	4	4	4	4	4	4	3	3	4	4	4	4	4	4	0	0	0	1	0.000	0.000
73.000000	4062.051282	4227.692308	4370.256410	3560.000000	4365.128205	4589.230769	4561.025641	4504.102564	4024.102564	4123.076923	4446.153846	4410.769231	4295.897436	3942.051282	1733.000000	1596.000000	63.300000	0.000000	0.000000	0.000000	0.000000	4	4	4	4	4	4	4	4	3	3	4	4	4	4	4	4	0	0	0	1	0.000	0.000
74.000000	4062.564103	4231.282051	4373.333333	3560.512821	4363.076923	4586.153846	4568.205128	4504.102564	4020.512821	4121.538462	4446.153846	4415.897436	4297.948718	3943.589744	1730.000000	1596.000000	63.308000	0.000000	0.000000	0.000000	0.000000	4	4	4	4	4	4	4	4	3	3	4	4	4	4	4	4	0	0	0	1	0.000	0.000
75.000000	4058.461538	4218.974359	4374.358974	3559.487179	4360.512821	4584.102564	4572.307692	4506.153846	4021.025641	4114.358974	4442.051282	4412.820513	4294.871795	3933.333333	1728.000000	1599.000000	63.314000	0.000000	0.000000	0.000000	0.000000	4	4	4	4	4	4	4	4	3	3	4	4	4	4	4	4	0	0	0	1	0.000	0.000
76.000000	4052.307692	4214.871795	4372.820513	3564.102564	4367.179487	4586.666667	4585.641026	4503.589744	4021.025641	4108.717949	4439.487179	4408.205128	4292.307692	3927.179487	1727.000000	1600.000000	63.322000	0.000000	0.000000	0.000000	0.000000	4	4	4	4	4	4	4	4	3	3	4	4	4	4	4	4	0	0	0	1	0.000	0.000
77.000000	4055.384615	4222.051282	4374.358974	3570.769231	4374.358974	4587.692308	4601.025641	4506.153846	4025.128205	4111.794872	4441.025641	4409.743590	4291.794872	3925.128205	1724.000000	1603.000000	63.329000	0.000000	0.000000	0.000000	0.000000	4	4	4	4	4	4	4	4	3	3	4	4	4	4	4	4	0	0	0	1	0.000	0.000
78.000000	4062.051282	4222.051282	4380.512821	3573.333333	4373.333333	4585.641026	4602.051282	4517.435897	4035.384615	4120.512821	4444.615385	4415.384615	4293.846154	3931.282051	1723.000000	1606.000000	63.337000	0.000000	0.000000	0.000000	0.000000	4	4	4	4	4	4	4	4	3	3	4	4	4	4	4	4	0	0	0	1	0.000	0.000
79.000000	4062.051282	4217.948718	4382.051282	3571.282051	4372.307692	4589.743590	4603.589744	4526.666667	4046.666667	4128.205128	4447.692308	4417.948718	4299.487179	3944.102564	1721.000000	1614.000000	63.345000	0.000000	0.000000	0.000000	0.000000	4	4	4	4	4	4	4	4	3	3	4	4	4	4	4	4	0	0	0	1	0.000	0.000
80.000000	4056.410256	4220.512821	4375.897436	3563.589744	4374.358974	4595.897436	4614.358974	4524.102564	4047.179487	4127.692308	4447.692308	4415.384615	4297.435897	3945.128205	1718.000000	1622.000000	63.352000	0.000000	0.000000	0.000000	0.000000	4	4	4	4	4	4	4	4	3	3	4	4	4	4	4	4	0	0	0	1	0.000	0.000
81.000000	4047.692308	4215.384615	4369.230769	3557.435897	4371.794872	4594.871795	4619.487179	4520.000000	4037.435897	4121.538462	4443.076923	4410.256410	4287.179487	3931.794872	1717.000000	1624.000000	63.360000	0.000000	0.000000	0.000000	0.000000	4	4	4	4	4	4	4	4	3	3	4	4	4	4	4	4	0	0	0	1	0.000	0.000
82.000000	4035.384615	4202.564103	4369.743590	3557.435897	4372.820513	4597.948718	4615.897436	4521.538462	4035.897436	4118.974359	4435.897436	4405.641026	4278.974359	3921.025641	1716.000000	1624.000000	63.368000	0.000000	0.000000	0.000000	0.000000	4	4	4	4	4	4	4	4	3	3	4	4	4	4	4	4	0	0	0	1	0.000	0.000
83.000000	4030.769231	4197.435897	4372.820513	3557.948718	4374.871795	4602.051282	4613.333333	4521.538462	4041.025641	4115.897436	4430.256410	4405.641026	4274.871795	3919.487179	1717.000000	1626.000000	63.376000	0.000000	0.000000	0.000000	0.000000	4	4	4	4	4	4	4	4	3	3	4	4	4	4	4	4	0	0	0	1	0.000	0.000
84.000000	4032.307692	4200.000000	4372.820513	3556.410256	4369.230769	4592.307692	4616.923077	4524.102564	4039.487179	4108.205128	4430.256410	4411.282051	4273.333333	3923.076923	1716.000000	1627.000000	63.386000	0.000000	0.000000	0.000000	0.000000	4	4	4	4	4	4	4	4	3	3	4	4	4	4	4	4	0	0	0	1	0.000	0.000
85.000000	4030.769231	4199.487179	4371.794872	3556.923077	4364.615385	4584.615385	4619.487179	4521.538462	4032.820513	4106.153846	4432.820513	4412.820513	4274.358974	3927.179487	1715.000000	1630.000000	63.394000	0.000000	0.000000	0.000000	0.000000	4	4	4	4	4	4	4	4	3	3	4	4	4	4	4	4	0	0	0	1	0.000	0.000
86.000000	4029.743590	4196.923077	4372.307692	3556.410256	4365.128205	4594.871795	4622.051282	4510.769231	4028.205128	4111.282051	4432.307692	4411.282051	4277.948718	3925.641026	1714.000000	1631.000000	63.401000	0.000000	0.000000	0.000000	0.000000	4	4	4	4	4	4	4	4	3	3	4	4	4	4	4	4	0	0	0	1	0.000	0.000
87.000000	4035.384615	4195.897436	4377.948718	3555.897436	4366.666667	4604.615385	4629.230769	4512.307692	4031.794872	4116.923077	4436.410256	4418.461538	4285.641026	3923.076923	1712.000000	1633.000000	63.409000	0.000000	0.000000	0.000000	0.000000	4	4	4	4	4	4	4	4	3	3	4	4	4	4	4	4	0	0	0	1	0.000	0.000
88.000000	4045.641026	4199.487179	4385.128205	3558.974359	4366.666667	4601.025641	4637.435897	4523.076923	4036.410256	4121.025641	4445.641026	4427.692308	4294.358974	3928.205128	1711.000000	1632.000000	63.415000	0.000000	0.000000	0.000000	0.000000	4	4	4	4	4	4	4	4	3	3	4	4	4	4	4	4	0	0	0	1	0.000	0.000
89.000000	4051.282051	4201.538462	4390.256410	3558.461538	4365.641026	4600.000000	4644.615385	4523.076923	4036.410256	4123.589744	4448.205128	4431.794872	4297.435897	3930.769231	1709.000000	1634.000000	63.424000	0.000000	0.000000	0.000000	0.000000	4	4	4	4	4	4	4	4	3	3	4	4	4	4	4	4	0	0	0	1	0.000	0.000
90.000000	4053.846154	4200.000000	4395.384615	3558.974359	4368.717949	4605.128205	4649.743590	4518.974359	4034.358974	4117.948718	4445.641026	4437.948718	4294.358974	3927.179487	1710.000000	1635.000000	63.432000	0.000000	0.000000	0.000000	0.000000	4	4	4	4	4	4	4	4	3	3	4	4	4	4	4	4	0	0	0	1	0.000	0.000
91.000000	4058.974359	4205.641026	4398.461538	3564.102564	4373.846154	4604.102564	4657.948718	4519.487179	4031.794872	4108.205128	4444.102564	4446.153846	4294.358974	3932.820513	1707.000000	1636.000000	63.438000	0.000000	0.000000	0.000000	0.000000	4	4	4	4	4	4	4	4	3	3	4	4	4	4	4	4	0	0	0	1	0.000	0.000
92.000000	4063.589744	4215.384615	4397.948718	3565.128205	4371.794872	4602.051282	4668.717949	4519.487179	4022.564103	4112.820513	4449.743590	4453.333333	4294.358974	3947.179487	1707.000000	1641.000000	63.448000	0.000000	0.000000	0.000000	0.000000	4	4	4	4	4	4	4	4	3	3	4	4	4	4	4	4	0	0	0	1	0.000	0.000
93.000000	4064.615385	4214.358974	4398.461538	3559.487179	4363.589744	4603.076923	4674.358974	4520.000000	4018.974359	4121.538462	4455.897436	4462.051282	4294.358974	3949.230769	1708.000000	1642.000000	63.456000	0.000000	0.000000	0.000000	0.000000	4	4	4	4	4	4	4	4	3	3	4	4	4	4	4	4	0	0	0	1	0.000	0.000
94.000000	4062.051282	4211.794872	4396.410256	3557.435897	4363.589744	4602.051282	4674.358974	4513.846154	4025.641026	4113.846154	4449.230769	4460.000000	4293.846154	3942.051282	1707.000000	1645.000000	63.464000	0.000000	0.000000	0.000000	0.000000	4	4	4	4	4	4	4	4	3	3	4	4	4	4	4	4	0	0	0	1	0.000	0.000
95.000000	4061.538462	4216.923077	4389.230769	3559.487179	4369.230769	4599.487179	4674.871795	4506.666667	4023.589744	4108.205128	4444.615385	4448.205128	4292.307692	3942.564103	1707.000000	1648.000000	63.472000	0.000000	0.000000	0.000000	0.000000	4	4	4	4	4	4	4	4	3	3	4	4	4	4	4	4	0	0	0	1	0.000	0.000
96.000000	4067.692308	4220.000000	4389.743590	3560.512821	4374.358974	4600.512821	4677.948718	4515.384615	4021.538462	4118.461538	4455.384615	4452.307692	4296.923077	3945.641026	1707.000000	1652.000000	63.479000	0.000000	0.000000	0.000000	0.000000	4	4	4	4	4	4	4	4	3	3	4	4	4	4	4	4	0	0	0	1	0.000	0.000
97.000000	4072.307692	4215.897436	4392.307692	3560.512821	4372.820513	4602.564103	4676.410256	4523.076923	4026.666667	4124.102564	4463.589744	4457.948718	4303.076923	3944.102564	1708.000000	1654.000000	63.486000	0.000000	0.000000	0.000000	0.000000	4	4	4	4	4	4	4	4	3	3	4	4	4	4	4	4	0	0	0	1	0.000	0.000
98.000000	4069.230769	4216.410256	4384.102564	3558.974359	4366.153846	4603.589744	4669.743590	4517.948718	4031.794872	4120.512821	4456.923077	4445.641026	4306.153846	3941.025641	1707.000000	1659.000000	63.494000	0.000000	0.000000	0.000000	0.000000	4	4	4	4	4	4	4	4	3	3	4	4	4	4	4	4	0	0	0	1	0.000	0.000
99.000000	4073.846154	4224.615385	4378.461538	3562.051282	4371.794872	4602.564103	4662.564103	4518.974359	4033.846154	4123.076923	4456.923077	4439.487179	4309.743590	3940.512821	1709.000000	1660.000000	63.502000	0.000000	0.000000	0.000000	0.000000	4	4	4	4	4	4	4	4	3	3	4	4	4	4	4	4	0	0	0	1	0.000	0.000
100.000000	4086.666667	4234.871795	4385.641026	3568.717949	4381.025641	4600.512821	4657.435897	4520.512821	4029.743590	4125.128205	4469.743590	4445.641026	4312.307692	3949.743590	1708.000000	1662.000000	63.510000	0.000000	0.000000	0.000000	0.000000	4	4	4	4	4	4	4	4	3	3	4	4	4	4	4	4	0	0	0	1	0.000	0.000
101.000000	4092.307692	4239.487179	4391.282051	3566.153846	4376.410256	4600.000000	4653.846154	4511.282051	4023.589744	4120.512821	4473.333333	4445.128205	4315.384615	3960.000000	1710.000000	1664.000000	63.518000	0.000000	0.000000	0.000000	0.000000	4	4	4	4	4	4	4	4	3	3	4	4	4	4	4	4	0	0	0	1	0.000	0.000
102.000000	4090.769231	4236.923077	4389.743590	3559.487179	4369.230769	4601.025641	4654.358974	4511.794872	4025.128205	4119.487179	4465.641026	4441.025641	4318.974359	3959.487179	1709.000000	1663.000000	63.525000	0.000000	0.000000	0.000000	0.000000	4	4	4	4	4	4	4	4	3	3	4	4	4	4	4	4	0	0	0	1	0.000	0.000
103.000000	4090.769231	4237.435897	4388.717949	3557.435897	4371.794872	4602.051282	4658.974359	4521.538462	4030.256410	4123.589744	4465.641026	4442.564103	4320.512821	3954.358974	1710.000000	1666.000000	63.533000	0.000000	0.000000	0.000000	0.000000	4	4	4	4	4	4	4	4	3	3	4	4	4	4	4	4	0	0	0	1	0.000	0.000
104.000000	4088.717949	4244.102564	4392.820513	3558.974359	4374.358974	4603.076923	4661.025641	4521.025641	4028.717949	4124.615385	4473.846154	4441.538462	4320.000000	3953.846154	1712.000000	1666.000000	63.542000	0.000000	0.000000	0.000000	0.000000	4	4	4	4	4	4	4	4	3	3	4	4	4	4	4	4	0	0	0	1	0.000	0.000
105.000000	4085.641026	4248.717949	4394.871795	3558.461538	4373.846154	4603.076923	4657.948718	4517.948718	4032.820513	4122.051282	4473.846154	4439.487179	4321.025641	3957.435897	1712.000000	1669.000000	63.550000	0.000000	0.000000	0.000000	0.000000	4	4	4	4	4	4	4	4	3	3	4	4	4	4	4	4	0	0	0	1	0.000	0.000
106.000000	4087.692308	4247.179487	4388.717949	3555.384615	4374.358974	4601.538462	4660.000000	4523.589744	4041.538462	4125.128205	4471.282051	4434.871795	4320.512821	3961.538462	1714.000000	1671.000000	63.558000	0.000000	0.000000	0.000000	0.000000	4	4	4	4	4	4	4	4	3	3	4	4	4	4	4	4	0	0	0	1	0.000	0.000
107.000000	4089.743590	4246.153846	4385.641026	3555.384615	4373.846154	4603.076923	4666.666667	4525.641026	4040.512821	4133.846154	4474.871795	4432.307692	4323.076923	3958.461538	1715.000000	1674.000000	63.565000	0.000000	0.000000	0.000000	0.000000	4	4	4	4	4	4	4	4	3	3	4	4	4	4	4	4	0	0	0	1	0.000	0.000
108.000000	4089.743590	4247.179487	4388.717949	3553.333333	4371.794872	4603.076923	4665.641026	4522.564103	4034.871795	4137.435897	4475.384615	4432.820513	4324.102564	3952.307692	1716.000000	1678.000000	63.572000	0.000000	0.000000	0.000000	0.000000	4	4	4	4	4	4	4	4	3	3	4	4	4	4	4	4	0	0	0	1	0.000	0.000
109.000000	4089.743590	4245.128205	4387.692308	3544.615385	4371.282051	4600.512821	4659.487179	4523.589744	4034.871795	4136.923077	4473.333333	4430.256410	4322.564103	3961.538462	1717.000000	1683.000000	63.580000	0.000000	0.000000	0.000000	0.000000	4	4	4	4	4	4	4	4	3	3	4	4	4	4	4	4	0	0	0	1	0.000	0.000
110.000000	4089.743590	4245.641026	4382.564103	3543.076923	4376.410256	4600.512821	4658.974359	4525.128205	4040.512821	4138.461538	4479.487179	4432.820513	4329.230769	3968.717949	1720.000000	1686.000000	63.588000	0.000000	0.000000	0.000000	0.000000	4	4	4	4	4	4	4	4	3	3	4	4	4	4	4	4	0	0	0	1	0.000	0.000
111.000000	4095.384615	4250.256410	4383.076923	3551.794872	4387.692308	4602.051282	4661.025641	4522.051282	4046.153846	4139.487179	4488.717949	4439.487179	4335.384615	3960.512821	1720.000000	1692.000000	63.597000	0.000000	0.000000	0.000000	0.000000	4	4	4	4	4	4	4	4	3	3	4	4	4	4	4	4	0	0	0	1	0.000	0.000
112.000000	4103.076923	4256.923077	4384.615385	3554.871795	4391.282051	4603.076923	4660.512821	4523.589744	4053.333333	4142.051282	4490.769231	4434.871795	4338.974359	3963.589744	1724.000000	1695.000000	63.605000	0.000000	0.000000	0.000000	0.000000	4	4	4	4	4	4	4	4	3	3	4	4	4	4	4	4	0	0	0	1	0.000	0.000
113.000000	4104.102564	4264.102564	4382.051282	3553.333333	4384.102564	4611.794872	4661.025641	4535.384615	4063.589744	4150.769231	4491.282051	4427.179487	4344.615385	3977.435897	1726.000000	1696.000000	63.611000	0.000000	0.000000	0.000000	0.000000	4	4	4	4	4	4	4	4	3	3	4	4	4	4	4	4	0	0	0	1	0.000	0.000
114.000000	4110.256410	4268.717949	4384.615385	3555.384615	4380.512821	4618.974359	4662.051282	4541.538462	4070.256410	4157.948718	4494.358974	4429.743590	4346.666667	3976.410256	1727.000000	1698.000000	63.619000	0.000000	0.000000	0.000000	0.000000	4	4	4	4	4	4	4	4	3	3	4	4	4	4	4	4	0	0	0	1	0.000	0.000
115.000000	4121.538462	4269.230769	4390.256410	3556.410256	4382.051282	4614.871795	4662.051282	4536.410256	4067.179487	4152.820513	4492.307692	4432.307692	4342.051282	3970.769231	1731.000000	1696.000000	63.626000	0.000000	0.000000	0.000000	0.000000	4	4	4	4	4	4	4	4	3	3	4	4	4	4	4	4	0	0	0	1	0.000	0.000
116.000000	4122.564103	4266.153846	4386.153846	3554.871795	4377.948718	4609.743590	4658.974359	4535.897436	4062.051282	4146.153846	4488.717949	4426.666667	4338.461538	3974.871795	1731.000000	1698.000000	63.634000	0.000000	0.000000	0.000000	0.000000	4	4	4	4	4	4	4	4	3	3	4	4	4	4	4	4	0	0	0	1	0.000	0.000
117.000000	4116.410256	4262.051282	4384.615385	3553.846154	4372.820513	4608.717949	4649.743590	4540.000000	4063.076923	4149.230769	4490.769231	4425.641026	4342.564103	3976.410256	1732.000000	1699.000000	63.642000	0.000000	0.000000	0.000000	0.000000	4	4	4	4	4	4	4	4	3	3	4	4	4	4	4	4	0	0	0	1	0.000	0.000
118.000000	4120.512821	4266.666667	4395.384615	3553.846154	4373.846154	4605.128205	4643.076923	4535.897436	4061.025641	4151.794872	4492.307692	4430.256410	4348.717949	3974.358974	1731.000000	1702.000000	63.650000	0.000000	0.000000	0.000000	0.000000	4	4	4	4	4	4	4	4	3	3	4	4	4	4	4	4	0	0	0	1	0.000	0.000
119.000000	4129.743590	4274.358974	4398.461538	3557.948718	4375.384615	4599.487179	4649.230769	4532.820513	4058.461538	4149.743590	4490.769231	4430.256410	4349.743590	3973.333333	1732.000000	1708.000000	63.659000	0.000000	0.000000	0.000000	0.000000	4	4	4	4	4	4	4	4	3	3	4	4	4	4	4	4	0	0	0	1	0.000	0.000
120.000000	4132.820513	4274.871795	4393.846154	3557.435897	4374.358974	4598.974359	4661.538462	4537.435897	4063.589744	4150.256410	4489.743590	4428.205128	4350.256410	3973.846154	1731.000000	1714.000000	63.667000	0.000000	0.000000	0.000000	0.000000	4	4	4	4	4	4	4	4	3	3	4	4	4	4	4	4	0	0	0	1	0.000	0.000
121.000000	4136.410256	4274.358974	4394.358974	3554.871795	4375.384615	4601.538462	4664.102564	4538.461538	4066.153846	4151.794872	4494.358974	4428.205128	4359.487179	3986.666667	1731.000000	1718.000000	63.675000	0.000000	0.000000	0.000000	0.000000	4	4	4	4	4	4	4	4	3	3	4	4	4	4	4	4	0	0	0	1	0.000	0.000
122.000000	4147.692308	4282.051282	4397.435897	3556.410256	4374.358974	4602.564103	4663.076923	4535.384615	4065.641026	4150.769231	4503.076923	4427.692308	4370.769231	4004.615385	1729.000000	1725.000000	63.682000	0.000000	0.000000	0.000000	0.000000	4	4	4	4	4	4	4	4	3	3	4	4	4	4	4	4	0	0	0	1	0.000	0.000
123.000000	4167.179487	4290.769231	4402.564103	3558.461538	4372.820513	4601.538462	4673.333333	4537.435897	4072.307692	4152.820513	4510.256410	4431.282051	4383.076923	4017.435897	1728.000000	1732.000000	63.690000	0.000000	0.000000	0.000000	0.000000	4	4	4	4	4	4	4	4	3	3	4	4	4	4	4	4	0	0	0	1	0.000	0.000
124.000000	4191.794872	4302.051282	4416.923077	3564.102564	4377.435897	4603.589744	4685.128205	4538.974359	4073.846154	4157.948718	4522.051282	4440.000000	4406.153846	4042.051282	1728.000000	1737.000000	63.697000	0.000000	0.000000	0.000000	0.000000	4	4	4	4	4	4	4	4	3	3	4	4	4	4	4	4	0	0	0	1	0.000	0.000
125.000000	4225.641026	4318.461538	4428.205128	3574.871795	4385.641026	4610.256410	4684.102564	4542.051282	4074.358974	4157.435897	4535.897436	4447.179487	4424.615385	4082.564103	1728.000000	1745.000000	63.705000	0.000000	0.000000	0.000000	0.000000	4	4	4	4	4	4	4	4	3	3	4	4	4	4	4	4	0	0	0	1	0.000	0.000
126.000000	4263.589744	4327.179487	4429.743590	3576.923077	4384.102564	4615.384615	4688.205128	4552.820513	4081.538462	4153.846154	4538.974359	4451.282051	4433.333333	4115.384615	1728.000000	1745.000000	63.713000	0.000000	0.000000	0.000000	0.000000	4	4	4	4	4	4	4	4	3	3	4	4	4	4	4	4	0	0	0	1	0.000	0.000
127.000000	4298.461538	4334.358974	4434.358974	3575.384615	4376.923077	4611.282051	4694.358974	4554.358974	4078.974359	4153.333333	4542.051282	4458.461538	4448.717949	4145.641026	1726.000000	1746.000000	63.721000	0.000000	0.000000	0.000000	0.000000	4	4	4	4	4	4	4	4	3	3	4	4	4	4	4	4	0	0	0	1	0.000	0.000
128.000000	4330.769231	4349.743590	4445.641026	3580.512821	4372.820513	4601.025641	4683.589744	4542.564103	4068.717949	4156.923077	4555.384615	4465.128205	4466.666667	4181.538462	1728.000000	1740.000000	63.729000	0.000000	0.000000	0.000000	0.000000	4	4	4	4	4	4	4	4	3	3	4	4	4	4	4	4	0	0	0	1	0.000	0.000
0.000000	4344.615385	4349.230769	4451.794872	3571.282051	4366.153846	4595.384615	4673.846154	4535.897436	4064.615385	4154.358974	4556.410256	4466.666667	4468.205128	4194.871795	1727.000000	1731.000000	63.737000	0.000000	0.000000	0.000000	0.000000	4	4	4	4	4	4	4	4	3	3	4	4	4	4	4	4	0	0	0	1	0.000	0.000
1.000000	4335.897436	4327.179487	4444.615385	3545.641026	4352.307692	4593.846154	4680.512821	4535.897436	4056.923077	4141.025641	4542.051282	4462.564103	4459.487179	4186.153846	1727.000000	1719.000000	63.744000	0.000000	0.000000	0.000000	0.000000	4	4	4	4	4	4	4	4	3	3	4	4	4	4	4	4	0	0	0	1	0.000	0.000
2.000000	4328.717949	4324.615385	4435.897436	3534.358974	4347.179487	4597.435897	4683.076923	4538.974359	4056.923077	4134.871795	4537.948718	4457.948718	4460.000000	4189.743590	1728.000000	1709.000000	63.753000	0.000000	0.000000	0.000000	0.000000	4	4	4	4	4	4	4	4	3	3	4	4	4	4	4	4	0	0	0	1	0.000	0.000
3.000000	4330.769231	4340.000000	4439.487179	3540.512821	4356.410256	4594.358974	4676.410256	4542.564103	4066.666667	4139.487179	4542.051282	4458.974359	4466.153846	4190.256410	1728.000000	1701.000000	63.760000	0.000000	0.000000	0.000000	0.000000	4	4	4	4	4	4	4	4	3	3	4	4	4	4	4	4	0	0	0	1	0.000	0.000
4.000000	4320.000000	4336.410256	4443.076923	3537.435897	4364.615385	4575.897436	4668.717949	4528.717949	4050.769231	4135.897436	4542.051282	4457.948718	4465.128205	4174.358974	1728.000000	1696.000000	63.769000	0.000000	0.000000	0.000000	0.000000	4	4	4	4	4	4	4	4	3	3	4	4	4	4	4	4	0	0	0	1	0.000	0.000
5.000000	4302.051282	4328.205128	4438.974359	3528.205128	4366.666667	4573.333333	4662.051282	4515.384615	4033.846154	4140.512821	4544.615385	4453.846154	4464.102564	4168.717949	1729.000000	1691.000000	63.777000	0.000000	0.000000	0.000000	0.000000	4	4	4	4	4	4	4	4	3	3	4	4	4	4	4	4	0	0	0	1	0.000	0.000
6.000000	4286.666667	4327.692308	4431.282051	3527.692308	4367.179487	4585.641026	4658.974359	4522.564103	4047.179487	4152.820513	4546.666667	4451.794872	4460.512821	4159.487179	1732.000000	1683.000000	63.783000	0.000000	0.000000	0.000000	0.000000	4	4	4	4	4	4	4	4	3	3	4	4	4	4	4	4	0	0	0	1	0.000	0.000
7.000000	4265.641026	4318.974359	4422.564103	3523.076923	4365.128205	4583.589744	4658.974359	4524.102564	4054.871795	4141.538462	4538.461538	4443.076923	4441.538462	4131.282051	1734.000000	1679.000000	63.792000	0.000000	0.000000	0.000000	0.000000	4	4	4	4	4	4	4	4	3	3	4	4	4	4	4	4	0	0	0	1	0.000	0.000
8.000000	4246.666667	4304.102564	4411.794872	3512.307692	4367.179487	4580.512821	4660.000000	4521.025641	4052.307692	4127.692308	4533.846154	4432.307692	4424.102564	4104.615385	1733.000000	1679.000000	63.800000	0.000000	0.000000	0.000000	0.000000	4	4	4	4	4	4	4	4	3	3	4	4	4	4	4	4	1	0	0	0	1.000	1.000
9.000000	4239.487179	4296.923077	4408.205128	3508.205128	4371.282051	4593.333333	4664.615385	4533.846154	4059.487179	4137.435897	4539.487179	4435.897436	4420.512821	4090.256410	1734.000000	1680.000000	63.808000	0.000000	0.000000	0.000000	0.000000	4	4	4	4	4	4	4	4	3	3	4	4	4	4	4	4	1	0	0	0	1.000	1.000
10.000000	4234.358974	4295.897436	4411.282051	3510.769231	4372.820513	4599.487179	4664.102564	4543.589744	4064.615385	4140.512821	4536.923077	4440.000000	4412.307692	4080.512821	1734.000000	1683.000000	63.815000	0.000000	0.000000	0.000000	0.000000	4	4	4	4	4	4	4	4	3	3	4	4	4	4	4	4	1	0	0	0	1.000	1.000
11.000000	4224.102564	4294.871795	4412.307692	3509.743590	4370.769231	4591.794872	4654.871795	4537.435897	4057.435897	4123.076923	4522.564103	4429.230769	4392.820513	4072.307692	1735.000000	1686.000000	63.823000	0.000000	0.000000	0.000000	0.000000	4	4	4	4	4	4	4	4	3	3	4	4	4	4	4	4	1	0	0	0	1.000	1.000
12.000000	4218.974359	4293.333333	4413.846154	3508.205128	4371.794872	4590.769231	4651.794872	4534.871795	4053.333333	4121.025641	4514.871795	4424.102564	4384.102564	4067.692308	1732.000000	1690.000000	63.830000	0.000000	0.000000	0.000000	0.000000	4	4	4	4	4	4	4	4	3	3	4	4	4	4	4	4	1	0	0	0	1.000	1.000
13.000000	4212.820513	4289.230769	4415.384615	3508.717949	4377.948718	4601.538462	4661.538462	4543.076923	4064.102564	4134.871795	4520.512821	4430.769231	4387.692308	4058.461538	1733.000000	1693.000000	63.837000	0.000000	0.000000	0.000000	0.000000	4	4	4	4	4	4	4	4	3	3	4	4	4	4	4	4	1	0	0	0	1.000	1.000
14.000000	4204.102564	4286.153846	4412.307692	3509.230769	4381.538462	4611.794872	4669.230769	4552.307692	4075.384615	4137.948718	4520.512821	4432.307692	4385.128205	4046.153846	1731.000000	1693.000000	63.845000	0.000000	0.000000	0.000000	0.000000	4	4	4	4	4	4	4	4	3	3	4	4	4	4	4	4	1	0	0	0	1.000	1.000
15.000000	4199.487179	4282.564103	4407.692308	3507.692308	4378.461538	4606.153846	4665.641026	4551.794872	4071.282051	4135.897436	4509.743590	4427.692308	4373.333333	4041.025641	1730.000000	1695.000000	63.853000	0.000000	0.000000	0.000000	0.000000	4	4	4	4	4	4	4	4	3	3	4	4	4	4	4	4	1	0	0	0	1.000	1.000
16.000000	4192.820513	4277.435897	4405.641026	3503.589744	4373.846154	4596.923077	4662.564103	4547.692308	4063.076923	4134.358974	4505.641026	4427.179487	4369.743590	4043.589744	1729.000000	1695.000000	63.861000	0.000000	0.000000	0.000000	0.000000	4	4	4	4	4	4	4	4	3	3	4	4	4	4	4	4	1	0	0	0	1.000	1.000
17.000000	4185.128205	4276.410256	4404.615385	3500.512821	4373.333333	4597.948718	4665.128205	4553.333333	4068.717949	4132.307692	4509.230769	4430.769231	4374.871795	4037.948718	1727.000000	1699.000000	63.869000	0.000000	0.000000	0.000000	0.000000	4	4	4	4	4	4	4	4	3	3	4	4	4	4	4	4	1	0	0	0	1.000	1.000
18.000000	4180.512821	4271.794872	4400.512821	3498.461538	4375.897436	4593.333333	4664.615385	4552.307692	4068.717949	4130.256410	4508.205128	4429.743590	4370.256410	4023.589744	1728.000000	1699.000000	63.876000	0.000000	0.000000	0.000000	0.000000	4	4	4	4	4	4	4	4	3	3	4	4	4	4	4	4	1	0	0	0	1.000	1.000
19.000000	4173.333333	4265.641026	4395.897436	3495.897436	4374.871795	4588.717949	4663.589744	4539.487179	4064.102564	4133.333333	4505.641026	4425.641026	4363.589744	4013.846154	1726.000000	1699.000000	63.884000	0.000000	0.000000	0.000000	0.000000	4	4	4	4	4	4	4	4	3	3	4	4	4	4	4	4	1	0	0	0	1.000	1.000
20.000000	4158.974359	4263.589744	4389.230769	3492.820513	4368.717949	4584.615385	4662.564103	4542.564103	4068.717949	4136.410256	4506.153846	4423.076923	4365.641026	4009.230769	1726.000000	1699.000000	63.893000	0.000000	0.000000	0.000000	0.000000	4	4	4	4	4	4	4	4	3	3	4	4	4	4	4	4	1	0	0	0	1.000	1.000
21.000000	4153.333333	4265.641026	4386.153846	3493.333333	4372.307692	4585.128205	4662.564103	4553.846154	4071.794872	4135.897436	4508.205128	4421.025641	4367.692308	4013.846154	1726.000000	1698.000000	63.902000	0.000000	0.000000	0.000000	0.000000	4	4	4	4	4	4	4	4	3	3	4	4	4	4	4	4	1	0	0	0	1.000	1.000
22.000000	4156.923077	4267.179487	4392.820513	3497.435897	4381.538462	4594.358974	4668.717949	4555.897436	4078.974359	4136.410256	4510.256410	4422.564103	4367.692308	4010.769231	1725.000000	1697.000000	63.910000	0.000000	0.000000	0.000000	0.000000	4	4	4	4	4	4	4	4	3	3	4	4	4	4	4	4	1	0	0	0	1.000	1.000
23.000000	4152.307692	4264.102564	4393.846154	3496.410256	4374.871795	4595.897436	4671.282051	4555.897436	4086.666667	4137.435897	4507.179487	4426.153846	4363.076923	3989.230769	1724.000000	1698.000000	63.916000	0.000000	0.000000	0.000000	0.000000	4	4	4	4	4	4	4	4	3	3	4	4	4	4	4	4	1	0	0	0	1.000	1.000
24.000000	4150.769231	4260.512821	4390.256410	3493.333333	4369.743590	4588.717949	4665.128205	4553.333333	4081.025641	4134.871795	4502.051282	4424.615385	4356.410256	3986.153846	1725.000000	1701.000000	63.923000	0.000000	0.000000	0.000000	0.000000	4	4	4	4	4	4	4	4	3	3	4	4	4	4	4	4	0	0	0	1	0.000	0.000
25.000000	4152.820513	4261.025641	4394.871795	3501.025641	4380.512821	4587.179487	4658.461538	4545.641026	4070.256410	4128.205128	4503.589744	4423.076923	4356.923077	4008.717949	1725.000000	1703.000000	63.931000	0.000000	0.000000	0.000000	0.000000	4	4	4	4	4	4	4	4	3	3	4	4	4	4	4	4	0	0	0	1	0.000	0.000
26.000000	4147.692308	4264.102564	4398.974359	3508.717949	4382.564103	4588.717949	4660.512821	4550.256410	4074.358974	4124.615385	4506.666667	4427.179487	4358.461538	4007.179487	1724.000000	1708.000000	63.939000	0.000000	0.000000	0.000000	0.000000	4	4	4	4	4	4	4	4	3	3	4	4	4	4	4	4	0	0	0	1	0.000	0.000
27.000000	4142.564103	4261.538462	4396.923077	3503.589744	4373.333333	4588.717949	4668.205128	4556.410256	4080.512821	4123.076923	4504.102564	4430.256410	4353.846154	3984.615385	1726.000000	1709.000000	63.947000	0.000000	0.000000	0.000000	0.000000	4	4	4	4	4	4	4	4	3	3	4	4	4	4	4	4	0	0	0	1	0.000	0.000
28.000000	4142.564103	4258.974359	4399.487179	3500.512821	4372.820513	4592.820513	4671.282051	4540.512821	4072.820513	4124.102564	4502.051282	4428.205128	4355.897436	3989.743590	1724.000000	1711.000000	63.956000	0.000000	0.000000	0.000000	0.000000	4	4	4	4	4	4	4	4	3	3	4	4	4	4	4	4	0	0	0	1	0.000	0.000
29.000000	4140.512821	4262.051282	4403.589744	3506.666667	4379.487179	4591.794872	4666.666667	4533.333333	4068.205128	4135.897436	4504.102564	4427.179487	4360.512821	4001.538462	1724.000000	1710.000000	63.963000	0.000000	0.000000	0.000000	0.000000	4	4	4	4	4	4	4	4	3	3	4	4	4	4	4	4	0	0	0	1	0.000	0.000
30.000000	4144.102564	4266.666667	4401.025641	3509.230769	4382.564103	4584.102564	4669.230769	4548.717949	4076.923077	4137.948718	4503.589744	4427.692308	4351.282051	3989.743590	1722.000000	1711.000000	63.971000	0.000000	0.000000	0.000000	0.000000	4	4	4	4	4	4	4	4	3	3	4	4	4	4	4	4	0	0	0	1	0.000	0.000
31.000000	4149.230769	4266.153846	4398.461538	3508.717949	4383.589744	4584.615385	4684.615385	4560.512821	4089.230769	4126.153846	4502.564103	4431.794872	4347.179487	3981.538462	1722.000000	1713.000000	63.980000	0.000000	0.000000	0.000000	0.000000	4	4	4	4	4	4	4	4	3	3	4	4	4	4	4	4	0	0	0	1	0.000	0.000
32.000000	4145.641026	4263.076923	4398.461538	3509.230769	4381.025641	4584.615385	4687.692308	4556.923077	4086.666667	4130.769231	4505.641026	4434.358974	4358.461538	3992.820513	1721.000000	1715.000000	63.986000	0.000000	0.000000	0.000000	0.000000	4	4	4	4	4	4	4	4	3	3	4	4	4	4	4	4	0	0	0	1	0.000	0.000
33.000000	4143.589744	4263.076923	4401.025641	3507.692308	4378.461538	4582.051282	4678.974359	4542.051282	4069.230769	4138.974359	4509.230769	4432.820513	4365.128205	4002.051282	1720.000000	1718.000000	63.994000	0.000000	0.000000	0.000000	0.000000	4	4	4	4	4	4	4	4	3	3	4	4	4	4	4	4	0	0	0	1	0.000	0.000
34.000000	4146.666667	4267.692308	4403.076923	3510.256410	4382.051282	4584.102564	4683.076923	4535.384615	4063.589744	4127.179487	4506.666667	4430.256410	4356.923077	3997.948718	1719.000000	1719.000000	64.001000	0.000000	0.000000	0.000000	0.000000	4	4	4	4	4	4	4	4	3	3	4	4	4	4	4	4	0	0	0	1	0.000	0.000
35.000000	4139.487179	4267.692308	4397.948718	3510.769231	4380.512821	4585.641026	4690.769231	4547.179487	4077.948718	4122.051282	4502.051282	4426.153846	4347.179487	3985.641026	1719.000000	1718.000000	64.009000	0.000000	0.000000	0.000000	0.000000	4	4	4	4	4	4	4	4	3	3	4	4	4	4	4	4	0	0	0	1	0.000	0.000
36.000000	4137.948718	4267.179487	4394.871795	3510.769231	4372.307692	4583.076923	4687.692308	4554.358974	4089.230769	4133.846154	4504.615385	4425.641026	4352.307692	3985.128205	1718.000000	1718.000000	64.017000	0.000000	0.000000	0.000000	0.000000	4	4	4	4	4	4	4	4	3	3	4	4	4	4	4	4	0	0	0	1	0.000	0.000
37.000000	4152.820513	4275.384615	4401.538462	3519.487179	4380.512821	4585.128205	4690.769231	4557.948718	4090.769231	4141.025641	4509.743590	4435.897436	4366.153846	4000.512821	1717.000000	1721.000000	64.025000	0.000000	0.000000	0.000000	0.000000	4	4	4	4	4	4	4	4	3	3	4	4	4	4	4	4	0	0	0	1	0.000	0.000
38.000000	4156.410256	4275.897436	4405.128205	3526.153846	4391.282051	4591.282051	4701.025641	4568.717949	4095.384615	4138.461538	4510.256410	4440.000000	4365.128205	3997.435897	1718.000000	1721.000000	64.033000	0.000000	0.000000	0.000000	0.000000	4	4	4	4	4	4	4	4	3	3	4	4	4	4	4	4	0	0	0	1	0.000	0.000
39.000000	4143.589744	4264.102564	4397.435897	3523.076923	4386.153846	4587.179487	4696.923077	4564.615385	4092.820513	4136.410256	4507.692308	4430.256410	4353.333333	3985.128205	1716.000000	1723.000000	64.041000	0.000000	0.000000	0.000000	0.000000	4	4	4	4	4	4	4	4	3	3	4	4	4	4	4	4	0	0	0	1	0.000	0.000
40.000000	4137.435897	4261.025641	4394.358974	3524.615385	4384.102564	4578.974359	4688.717949	4553.333333	4085.128205	4136.410256	4507.179487	4426.666667	4354.871795	3998.461538	1718.000000	1722.000000	64.050000	0.000000	0.000000	0.000000	0.000000	4	4	4	4	4	4	4	4	3	3	4	4	4	4	4	4	0	0	0	1	0.000	0.000
41.000000	4140.000000	4266.666667	4399.487179	3530.769231	4387.179487	4585.641026	4690.769231	4558.461538	4091.282051	4136.923077	4510.769231	4432.820513	4360.000000	4004.615385	1716.000000	1721.000000	64.058000	0.000000	0.000000	0.000000	0.000000	4	4	4	4	4	4	4	4	3	3	4	4	4	4	4	4	0	0	0	1	0.000	0.000
42.000000	4136.923077	4264.102564	4394.358974	3526.666667	4377.435897	4584.615385	4689.743590	4557.948718	4086.666667	4127.179487	4503.589744	4425.128205	4347.692308	3981.025641	1716.000000	1721.000000	64.066000	0.000000	0.000000	0.000000	0.000000	4	4	4	4	4	4	4	4	3	3	4	4	4	4	4	4	0	0	0	1	0.000	0.000
43.000000	4133.846154	4257.948718	4383.076923	3524.615385	4368.205128	4567.692308	4681.538462	4549.230769	4066.666667	4116.410256	4489.743590	4411.282051	4335.897436	3971.282051	1716.000000	1724.000000	64.074000	0.000000	0.000000	0.000000	0.000000	4	4	4	4	4	4	4	4	3	3	4	4	4	4	4	4	0	0	0	1	0.000	0.000
44.000000	4137.948718	4260.000000	4388.717949	3533.846154	4370.256410	4569.230769	4682.051282	4552.820513	4074.358974	4120.000000	4495.384615	4417.948718	4343.076923	3982.051282	1715.000000	1728.000000	64.082000	0.000000	0.000000	0.000000	0.000000	4	4	4	4	4	4	4	4	3	3	4	4	4	4	4	4	0	0	0	1	0.000	0.000
45.000000	4142.051282	4265.641026	4400.512821	3542.051282	4373.333333	4586.153846	4687.179487	4555.897436	4094.358974	4125.128205	4510.769231	4429.743590	4354.871795	3989.743590	1714.000000	1731.000000	64.089000	0.000000	0.000000	0.000000	0.000000	4	4	4	4	4	4	4	4	3	3	4	4	4	4	4	4	0	0	0	1	0.000	0.000
46.000000	4141.025641	4267.179487	4398.461538	3541.025641	4373.333333	4587.179487	4687.179487	4551.282051	4085.641026	4121.538462	4510.769231	4428.717949	4354.871795	3994.358974	1713.000000	1735.000000	64.097000	0.000000	0.000000	0.000000	0.000000	4	4	4	4	4	4	4	4	3	3	4	4	4	4	4	4	0	0	0	1	0.000	0.000
47.000000	4138.974359	4265.641026	4392.307692	3540.512821	4373.846154	4582.051282	4684.102564	4548.205128	4074.358974	4118.974359	4505.641026	4425.128205	4348.717949	3992.820513	1713.000000	1734.000000	64.104000	0.000000	0.000000	0.000000	0.000000	4	4	4	4	4	4	4	4	3	3	4	4	4	4	4	4	0	0	0	1	0.000	0.000
48.000000	4142.051282	4265.641026	4394.871795	3545.128205	4373.846154	4588.205128	4687.692308	4550.769231	4085.641026	4125.641026	4507.692308	4427.692308	4350.256410	3987.692308	1712.000000	1734.000000	64.113000	0.000000	0.000000	0.000000	0.000000	4	4	4	4	4	4	4	4	3	3	4	4	4	4	4	4	0	0	0	1	0.000	0.000
49.000000	4142.051282	4263.076923	4396.923077	3543.076923	4370.256410	4591.282051	4695.384615	4557.948718	4094.358974	4127.692308	4506.666667	4426.153846	4354.871795	3988.205128	1712.000000	1733.000000	64.120000	0.000000	0.000000	0.000000	0.000000	4	4	4	4	4	4	4	4	3	3	4	4	4	4	4	4	0	0	0	1	0.000	0.000
50.000000	4139.487179	4260.000000	4393.333333	3538.974359	4365.128205	4587.179487	4695.384615	4558.461538	4089.743590	4121.025641	4504.102564	4423.589744	4352.307692	3986.153846	1710.000000	1733.000000	64.128000	0.000000	0.000000	0.000000	0.000000	4	4	4	4	4	4	4	4	3	3	4	4	4	4	4	4	0	0	0	1	0.000	0.000
51.000000	4140.000000	4262.051282	4393.846154	3546.666667	4368.717949	4583.589744	4689.230769	4552.307692	4088.205128	4121.538462	4507.179487	4426.666667	4352.820513	3986.153846	1712.000000	1731.000000	64.135000	0.000000	0.000000	0.000000	0.000000	4	4	4	4	4	4	4	4	3	3	4	4	4	4	4	4	0	0	0	1	0.000	0.000
52.000000	4142.051282	4265.641026	4400.000000	3557.948718	4378.974359	4581.538462	4686.666667	4551.794872	4092.307692	4133.846154	4510.769231	4433.333333	4358.461538	4002.564103	1710.000000	1728.000000	64.143000	0.000000	0.000000	0.000000	0.000000	4	4	4	4	4	4	4	4	3	3	4	4	4	4	4	4	0	0	0	1	0.000	0.000
53.000000	4145.641026	4268.717949	4402.564103	3560.000000	4383.589744	4583.589744	4692.307692	4554.871795	4091.794872	4138.974359	4511.794872	4438.974359	4360.000000	4010.256410	1711.000000	1726.000000	64.152000	0.000000	0.000000	0.000000	0.000000	4	4	4	4	4	4	4	4	3	3	4	4	4	4	4	4	0	0	0	1	0.000	0.000
54.000000	4150.256410	4271.282051	4398.974359	3555.384615	4381.025641	4586.153846	4696.923077	4553.846154	4087.692308	4133.846154	4509.230769	4437.435897	4355.897436	3989.230769	1712.000000	1720.000000	64.159000	0.000000	0.000000	0.000000	0.000000	4	4	4	4	4	4	4	4	3	3	4	4	4	4	4	4	0	0	0	1	0.000	0.000
55.000000	4156.410256	4278.461538	4397.435897	3562.051282	4382.564103	4588.717949	4697.435897	4552.820513	4092.307692	4136.410256	4508.717949	4433.846154	4355.897436	3981.025641	1712.000000	1717.000000	64.166000	0.000000	0.000000	0.000000	0.000000	4	4	4	4	4	4	4	4	3	3	4	4	4	4	4	4	0	0	0	1	0.000	0.000
56.000000	4155.897436	4282.051282	4400.512821	3570.769231	4386.153846	4588.717949	4694.871795	4551.794872	4092.307692	4137.435897	4508.717949	4432.820513	4359.487179	4004.615385	1714.000000	1712.000000	64.173000	0.000000	0.000000	0.000000	0.000000	4	4	4	4	4	4	4	4	3	3	4	4	4	4	4	4	0	0	0	1	0.000	0.000
57.000000	4144.102564	4271.794872	4400.000000	3566.666667	4378.974359	4588.205128	4694.358974	4553.333333	4080.512821	4126.666667	4506.666667	4427.179487	4353.333333	4008.205128	1714.000000	1708.000000	64.181000	0.000000	0.000000	0.000000	0.000000	4	4	4	4	4	4	4	4	3	3	4	4	4	4	4	4	0	0	0	1	0.000	0.000
58.000000	4133.333333	4268.205128	4396.410256	3564.102564	4370.769231	4588.717949	4693.846154	4551.794872	4071.794872	4117.948718	4500.512821	4420.512821	4342.564103	3983.589744	1716.000000	1707.000000	64.189000	0.000000	0.000000	0.000000	0.000000	4	4	4	4	4	4	4	4	3	3	4	4	4	4	4	4	0	0	0	1	0.000	0.000
59.000000	4138.461538	4278.974359	4395.384615	3571.282051	4378.461538	4585.128205	4690.256410	4541.538462	4072.307692	4118.461538	4495.897436	4418.974359	4340.512821	3986.153846	1716.000000	1707.000000	64.199000	0.000000	0.000000	0.000000	0.000000	4	4	4	4	4	4	4	4	3	3	4	4	4	4	4	4	0	0	0	1	0.000	0.000
60.000000	4145.128205	4283.589744	4395.384615	3573.333333	4381.025641	4584.102564	4688.717949	4545.641026	4076.923077	4121.538462	4498.461538	4416.923077	4345.128205	4003.589744	1718.000000	1706.000000	64.206000	0.000000	0.000000	0.000000	0.000000	4	4	4	4	4	4	4	4	3	3	4	4	4	4	4	4	0	0	0	1	0.000	0.000
61.000000	4136.923077	4277.435897	4396.923077	3569.230769	4367.179487	4583.589744	4689.230769	4552.307692	4074.358974	4120.512821	4501.025641	4417.948718	4342.051282	3992.307692	1718.000000	1706.000000	64.215000	0.000000	0.000000	0.000000	0.000000	4	4	4	4	4	4	4	4	3	3	4	4	4	4	4	4	0	0	0	1	0.000	0.000
62.000000	4139.487179	4279.487179	4402.564103	3571.794872	4365.128205	4575.384615	4689.743590	4541.538462	4063.076923	4120.000000	4508.717949	4427.179487	4340.000000	3981.025641	1721.000000	1708.000000	64.222000	0.000000	0.000000	0.000000	0.000000	4	4	4	4	4	4	4	4	3	3	4	4	4	4	4	4	0	0	0	1	0.000	0.000
63.000000	4156.923077	4284.102564	4407.692308	3577.948718	4379.487179	4575.384615	4694.871795	4543.589744	4070.769231	4122.564103	4521.538462	4432.307692	4346.666667	3991.794872	1722.000000	1710.000000	64.229000	0.000000	0.000000	0.000000	0.000000	4	4	4	4	4	4	4	4	3	3	4	4	4	4	4	4	0	0	0	1	0.000	0.000
64.000000	4151.282051	4280.512821	4402.564103	3576.410256	4383.589744	4581.025641	4697.435897	4555.384615	4083.076923	4119.487179	4516.410256	4422.051282	4340.512821	3992.820513	1724.000000	1711.000000	64.237000	0.000000	0.000000	0.000000	0.000000	4	4	4	4	4	4	4	4	3	3	4	4	4	4	4	4	0	0	0	1	0.000	0.000
65.000000	4136.410256	4277.948718	4399.487179	3572.307692	4376.410256	4576.923077	4686.666667	4539.487179	4071.282051	4111.282051	4503.076923	4415.897436	4331.794872	3982.564103	1724.000000	1712.000000	64.245000	0.000000	0.000000	0.000000	0.000000	4	4	4	4	4	4	4	4	3	3	4	4	4	4	4	4	0	0	0	1	0.000	0.000
66.000000	4146.666667	4280.512821	4406.666667	3577.435897	4372.307692	4578.974359	4685.128205	4530.256410	4067.179487	4116.410256	4514.871795	4426.153846	4343.076923	3991.282051	1724.000000	1711.000000	64.254000	0.000000	0.000000	0.000000	0.000000	4	4	4	4	4	4	4	4	3	3	4	4	4	4	4	4	0	0	0	1	0.000	0.000
67.000000	4158.461538	4280.000000	4409.230769	3581.538462	4373.846154	4595.384615	4694.871795	4552.820513	4083.589744	4128.205128	4528.205128	4435.384615	4353.846154	4005.128205	1725.000000	1710.000000	64.261000	0.000000	0.000000	0.000000	0.000000	4	4	4	4	4	4	4	4	3	3	4	4	4	4	4	4	0	0	0	1	0.000	0.000
68.000000	4152.307692	4277.948718	4402.564103	3580.000000	4378.974359	4590.769231	4691.794872	4555.897436	4077.948718	4122.051282	4515.897436	4432.307692	4342.564103	3993.846154	1726.000000	1706.000000	64.269000	0.000000	0.000000	0.000000	0.000000	4	4	4	4	4	4	4	4	3	3	4	4	4	4	4	4	0	0	0	1	0.000	0.000
69.000000	4150.769231	4279.487179	4399.487179	3583.589744	4383.589744	4567.692308	4681.538462	4534.871795	4058.461538	4105.128205	4504.102564	4427.692308	4330.769231	3980.512821	1725.000000	1703.000000	64.277000	0.000000	0.000000	0.000000	0.000000	4	4	4	4	4	4	4	4	3	3	4	4	4	4	4	4	0	0	0	1	0.000	0.000
70.000000	4159.487179	4280.512821	4404.102564	3589.230769	4383.076923	4571.282051	4685.128205	4531.794872	4064.102564	4104.615385	4508.717949	4430.256410	4336.410256	3996.923077	1727.000000	1700.000000	64.284000	0.000000	0.000000	0.000000	0.000000	4	4	4	4	4	4	4	4	3	3	4	4	4	4	4	4	0	0	0	1	0.000	0.000
71.000000	4167.179487	4284.102564	4408.205128	3591.282051	4388.717949	4594.358974	4694.358974	4546.666667	4080.512821	4119.487179	4517.948718	4433.846154	4344.102564	4015.897436	1727.000000	1697.000000	64.292000	0.000000	0.000000	0.000000	0.000000	4	4	4	4	4	4	4	4	3	3	4	4	4	4	4	4	0	0	0	1	0.000	0.000
72.000000	4171.282051	4288.717949	4406.666667	3592.307692	4395.384615	4600.000000	4693.333333	4550.769231	4079.487179	4126.666667	4522.564103	4433.846154	4343.589744	4003.589744	1728.000000	1696.000000	64.300000	0.000000	0.000000	0.000000	0.000000	4	4	4	4	4	4	4	4	3	3	4	4	4	4	4	4	0	0	0	1	0.000	0.000
73.000000	4168.717949	4284.102564	4398.974359	3592.820513	4393.846154	4583.076923	4686.153846	4538.974359	4068.205128	4118.974359	4522.051282	4427.692308	4339.487179	3987.692308	1730.000000	1693.000000	64.307000	0.000000	0.000000	0.000000	0.000000	4	4	4	4	4	4	4	4	3	3	4	4	4	4	4	4	0	0	0	1	0.000	0.000
74.000000	4165.641026	4276.410256	4395.897436	3590.256410	4387.179487	4573.846154	4684.615385	4535.897436	4070.769231	4119.487179	4519.487179	4425.641026	4340.000000	3989.230769	1730.000000	1696.000000	64.315000	0.000000	0.000000	0.000000	0.000000	4	4	4	4	4	4	4	4	3	3	4	4	4	4	4	4	0	0	0	1	0.000	0.000
75.000000	4165.641026	4276.410256	4401.538462	3590.256410	4381.025641	4582.051282	4687.692308	4542.564103	4076.923077	4122.051282	4514.358974	4428.717949	4338.461538	3990.256410	1733.000000	1695.000000	64.324000	0.000000	0.000000	0.000000	0.000000	4	4	4	4	4	4	4	4	3	3	4	4	4	4	4	4	0	0	0	1	0.000	0.000
76.000000	4167.692308	4276.923077	4401.025641	3589.230769	4377.435897	4587.692308	4684.615385	4542.564103	4066.153846	4109.230769	4506.666667	4425.128205	4330.256410	3987.692308	1733.000000	1695.000000	64.331000	0.000000	0.000000	0.000000	0.000000	4	4	4	4	4	4	4	4	3	3	4	4	4	4	4	4	0	0	0	1	0.000	0.000
77.000000	4174.358974	4274.871795	4394.358974	3587.692308	4380.000000	4583.589744	4679.487179	4538.974359	4063.076923	4105.641026	4507.179487	4421.025641	4331.282051	3991.794872	1733.000000	1695.000000	64.339000	0.000000	0.000000	0.000000	0.000000	4	4	4	4	4	4	4	4	3	3	4	4	4	4	4	4	0	0	0	1	0.000	0.000
78.000000	4182.051282	4277.948718	4396.923077	3592.820513	4387.692308	4582.564103	4684.102564	4538.974359	4074.871795	4119.487179	4519.487179	4425.641026	4341.025641	3996.410256	1734.000000	1696.000000	64.346000	0.000000	0.000000	0.000000	0.000000	4	4	4	4	4	4	4	4	3	3	4	4	4	4	4	4	0	0	0	1	0.000	0.000
79.000000	4194.358974	4280.512821	4409.230769	3602.051282	4392.820513	4587.692308	4686.666667	4546.666667	4078.461538	4125.641026	4521.025641	4434.358974	4341.538462	3993.333333	1735.000000	1696.000000	64.353000	0.000000	0.000000	0.000000	0.000000	4	4	4	4	4	4	4	4	3	3	4	4	4	4	4	4	0	0	0	1	0.000	0.000
80.000000	4200.000000	4281.025641	4415.897436	3607.692308	4390.769231	4585.641026	4684.615385	4553.846154	4073.846154	4120.512821	4510.256410	4437.948718	4334.871795	3987.692308	1734.000000	1696.000000	64.361000	0.000000	0.000000	0.000000	0.000000	4	4	4	4	4	4	4	4	3	3	4	4	4	4	4	4	0	0	0	1	0.000	0.000
81.000000	4190.256410	4278.974359	4411.282051	3603.076923	4385.128205	4582.564103	4687.179487	4547.179487	4070.256410	4117.435897	4504.615385	4434.358974	4331.282051	3987.179487	1735.000000	1696.000000	64.369000	0.000000	0.000000	0.000000	0.000000	4	4	4	4	4	4	4	4	3	3	4	4	4	4	4	4	0	0	0	1	0.000	0.000
82.000000	4187.179487	4271.282051	4403.589744	3591.794872	4382.564103	4582.564103	4689.743590	4537.948718	4065.128205	4111.794872	4505.641026	4426.153846	4327.179487	3992.307692	1734.000000	1695.000000	64.377000	0.000000	0.000000	0.000000	0.000000	4	4	4	4	4	4	4	4	3	3	4	4	4	4	4	4	0	0	0	1	0.000	0.000
83.000000	4200.000000	4266.153846	4401.025641	3586.666667	4383.076923	4582.564103	4684.102564	4538.461538	4057.948718	4106.153846	4503.076923	4423.076923	4323.589744	3995.897436	1735.000000	1696.000000	64.385000	0.000000	0.000000	0.000000	0.000000	4	4	4	4	4	4	4	4	3	3	4	4	4	4	4	4	0	0	0	1	0.000	0.000
84.000000	4212.820513	4275.384615	4411.794872	3598.974359	4383.076923	4585.641026	4678.974359	4537.435897	4052.307692	4110.256410	4503.589744	4434.358974	4331.282051	3995.384615	1735.000000	1693.000000	64.392000	0.000000	0.000000	0.000000	0.000000	4	4	4	4	4	4	4	4	3	3	4	4	4	4	4	4	0	0	0	1	0.000	0.000
85.000000	4216.923077	4276.923077	4420.512821	3606.153846	4384.102564	4574.871795	4676.923077	4533.333333	4050.256410	4112.820513	4509.230769	4440.000000	4335.897436	4000.000000	1734.000000	1693.000000	64.400000	0.000000	0.000000	0.000000	0.000000	4	4	4	4	4	4	4	4	3	3	4	4	4	4	4	4	0	0	0	1	0.000	0.000
86.000000	4214.871795	4263.589744	4411.794872	3591.282051	4377.435897	4553.846154	4675.384615	4534.358974	4050.256410	4107.692308	4503.076923	4430.256410	4327.179487	4001.025641	1735.000000	1693.000000	64.408000	0.000000	0.000000	0.000000	0.000000	4	4	4	4	4	4	4	4	3	3	4	4	4	4	4	4	0	0	0	1	0.000	0.000
87.000000	4211.282051	4260.512821	4401.538462	3583.589744	4369.743590	4558.974359	4675.897436	4535.384615	4051.282051	4103.076923	4494.871795	4424.615385	4321.025641	3985.641026	1734.000000	1693.000000	64.416000	0.000000	0.000000	0.000000	0.000000	4	4	4	4	4	4	4	4	3	3	4	4	4	4	4	4	0	0	0	1	0.000	0.000
88.000000	4220.000000	4269.230769	4413.846154	3596.923077	4375.384615	4586.153846	4683.076923	4536.410256	4055.384615	4110.256410	4501.538462	4435.897436	4330.256410	3987.692308	1734.000000	1692.000000	64.424000	0.000000	0.000000	0.000000	0.000000	4	4	4	4	4	4	4	4	3	3	4	4	4	4	4	4	0	0	0	1	0.000	0.000
89.000000	4234.871795	4276.410256	4427.692308	3606.153846	4386.153846	4594.871795	4684.615385	4540.000000	4066.153846	4124.615385	4514.871795	4443.589744	4343.076923	4015.384615	1734.000000	1692.000000	64.434000	0.000000	0.000000	0.000000	0.000000	4	4	4	4	4	4	4	4	3	3	4	4	4	4	4	4	0	0	0	1	0.000	0.000
90.000000	4234.871795	4277.435897	4415.897436	3599.487179	4382.051282	4580.000000	4678.461538	4539.487179	4065.641026	4121.025641	4509.230769	4432.307692	4339.487179	4013.333333	1733.000000	1691.000000	64.441000	0.000000	0.000000	0.000000	0.000000	4	4	4	4	4	4	4	4	3	3	4	4	4	4	4	4	0	0	0	1	0.000	0.000
91.000000	4229.743590	4274.358974	4401.025641	3598.461538	4373.333333	4573.846154	4676.923077	4535.897436	4047.692308	4106.153846	4493.846154	4424.102564	4326.153846	3982.051282	1732.000000	1692.000000	64.449000	0.000000	0.000000	0.000000	0.000000	4	4	4	4	4	4	4	4	3	3	4	4	4	4	4	4	0	0	0	1	0.000	0.000
92.000000	4231.794872	4272.820513	4405.128205	3602.051282	4376.410256	4576.410256	4674.871795	4533.846154	4037.948718	4107.179487	4496.410256	4429.230769	4324.102564	3977.948718	1733.000000	1692.000000	64.457000	0.000000	0.000000	0.000000	0.000000	4	4	4	4	4	4	4	4	3	3	4	4	4	4	4	4	0	0	0	1	0.000	0.000
93.000000	4236.923077	4272.307692	4404.615385	3597.435897	4381.025641	4569.230769	4670.769231	4536.923077	4047.692308	4113.333333	4501.538462	4427.692308	4329.230769	3992.307692	1731.000000	1693.000000	64.465000	0.000000	0.000000	0.000000	0.000000	4	4	4	4	4	4	4	4	3	3	4	4	4	4	4	4	0	0	0	1	0.000	0.000
94.000000	4233.846154	4265.641026	4390.256410	3587.692308	4382.564103	4556.410256	4670.256410	4536.923077	4050.769231	4103.589744	4493.333333	4413.846154	4321.538462	3980.000000	1731.000000	1695.000000	64.472000	0.000000	0.000000	0.000000	0.000000	4	4	4	4	4	4	4	4	3	3	4	4	4	4	4	4	0	0	0	1	0.000	0.000
95.000000	4229.230769	4260.512821	4383.076923	3585.128205	4384.102564	4558.461538	4667.692308	4527.692308	4036.923077	4091.794872	4487.179487	4411.794872	4312.307692	3967.179487	1731.000000	1694.000000	64.480000	0.000000	0.000000	0.000000	0.000000	4	4	4	4	4	4	4	4	3	3	4	4	4	4	4	4	0	0	0	1	0.000	0.000
96.000000	4236.410256	4263.589744	4386.666667	3588.205128	4375.384615	4572.820513	4664.615385	4518.461538	4030.769231	4091.794872	4493.846154	4423.076923	4319.487179	3980.000000	1728.000000	1696.000000	64.488000	0.000000	0.000000	0.000000	0.000000	4	4	4	4	4	4	4	4	3	3	4	4	4	4	4	4	0	0	0	1	0.000	0.000
97.000000	4246.666667	4265.128205	4390.769231	3588.717949	4362.051282	4578.974359	4668.717949	4518.461538	4034.871795	4093.333333	4493.846154	4426.153846	4326.666667	3986.153846	1729.000000	1696.000000	64.495000	0.000000	0.000000	0.000000	0.000000	4	4	4	4	4	4	4	4	3	3	4	4	4	4	4	4	0	0	0	1	0.000	0.000
98.000000	4250.256410	4265.128205	4395.897436	3588.717949	4368.205128	4585.128205	4675.384615	4532.307692	4043.589744	4096.410256	4488.205128	4425.641026	4323.589744	3978.974359	1728.000000	1696.000000	64.503000	0.000000	0.000000	0.000000	0.000000	4	4	4	4	4	4	4	4	3	3	4	4	4	4	4	4	0	0	0	1	0.000	0.000
99.000000	4251.794872	4267.179487	4398.974359	3590.769231	4378.974359	4590.256410	4675.384615	4538.974359	4053.333333	4103.589744	4498.974359	4430.769231	4328.205128	3984.102564	1728.000000	1696.000000	64.511000	0.000000	0.000000	0.000000	0.000000	4	4	4	4	4	4	4	4	3	3	4	4	4	4	4	4	0	0	0	1	0.000	0.000
100.000000	4250.769231	4266.666667	4398.974359	3592.307692	4369.743590	4577.435897	4669.743590	4528.205128	4048.205128	4102.051282	4504.102564	4432.820513	4331.282051	3995.384615	1727.000000	1695.000000	64.519000	0.000000	0.000000	0.000000	0.000000	4	4	4	4	4	4	4	4	3	3	4	4	4	4	4	4	0	0	0	1	0.000	0.000
101.000000	4247.692308	4266.153846	4398.974359	3589.230769	4363.076923	4570.256410	4665.128205	4524.615385	4033.846154	4092.820513	4492.307692	4429.230769	4318.974359	3990.769231	1727.000000	1695.000000	64.527000	0.000000	0.000000	0.000000	0.000000	4	4	4	4	4	4	4	4	3	3	4	4	4	4	4	4	0	0	0	1	0.000	0.000
102.000000	4245.641026	4265.641026	4401.025641	3587.692308	4370.769231	4579.487179	4669.743590	4536.410256	4032.820513	4089.743590	4485.128205	4429.230769	4312.820513	3982.564103	1726.000000	1694.000000	64.534000	0.000000	0.000000	0.000000	0.000000	4	4	4	4	4	4	4	4	3	3	4	4	4	4	4	4	0	0	0	1	0.000	0.000
103.000000	4245.128205	4264.615385	4405.128205	3590.769231	4374.358974	4587.692308	4673.846154	4540.000000	4038.461538	4091.282051	4491.282051	4431.282051	4320.512821	3987.179487	1726.000000	1696.000000	64.543000	0.000000	0.000000	0.000000	0.000000	4	4	4	4	4	4	4	4	3	3	4	4	4	4	4	4	0	0	0	1	0.000	0.000
104.000000	4245.128205	4263.076923	4405.128205	3591.794872	4372.307692	4585.641026	4669.230769	4534.358974	4036.410256	4090.256410	4491.282051	4428.717949	4322.051282	3985.641026	1725.000000	1696.000000	64.551000	0.000000	0.000000	0.000000	0.000000	4	4	4	4	4	4	4	4	3	3	4	4	4	4	4	4	0	0	0	1	0.000	0.000
105.000000	4242.051282	4262.564103	4399.487179	3589.230769	4372.307692	4579.487179	4666.153846	4529.230769	4034.358974	4089.743590	4485.641026	4427.179487	4314.358974	3974.358974	1724.000000	1697.000000	64.558000	0.000000	0.000000	0.000000	0.000000	4	4	4	4	4	4	4	4	3	3	4	4	4	4	4	4	0	0	0	1	0.000	0.000
106.000000	4237.435897	4263.076923	4398.974359	3587.179487	4370.256410	4569.743590	4661.025641	4525.641026	4037.948718	4092.820513	4487.179487	4429.230769	4316.923077	3973.846154	1725.000000	1695.000000	64.565000	0.000000	0.000000	0.000000	0.000000	4	4	4	4	4	4	4	4	3	3	4	4	4	4	4	4	0	0	0	1	0.000	0.000
107.000000	4243.076923	4263.076923	4403.589744	3592.307692	4375.897436	4569.743590	4656.923077	4531.282051	4044.615385	4095.384615	4488.205128	4428.205128	4318.974359	3988.205128	1722.000000	1694.000000	64.573000	0.000000	0.000000	0.000000	0.000000	4	4	4	4	4	4	4	4	3	3	4	4	4	4	4	4	0	0	0	1	0.000	0.000
108.000000	4260.000000	4266.153846	4408.205128	3603.076923	4382.051282	4583.076923	4667.179487	4542.051282	4050.256410	4097.435897	4488.717949	4426.666667	4313.846154	3989.230769	1723.000000	1691.000000	64.581000	0.000000	0.000000	0.000000	0.000000	4	4	4	4	4	4	4	4	3	3	4	4	4	4	4	4	0	0	0	1	0.000	0.000
109.000000	4266.153846	4272.307692	4411.794872	3606.153846	4375.384615	4586.666667	4674.358974	4543.076923	4048.717949	4101.538462	4490.256410	4433.333333	4316.410256	3985.641026	1719.000000	1688.000000	64.590000	0.000000	0.000000	0.000000	0.000000	4	4	4	4	4	4	4	4	3	3	4	4	4	4	4	4	0	0	0	1	0.000	0.000
110.000000	4263.589744	4274.871795	4412.820513	3602.564103	4371.282051	4582.564103	4668.205128	4543.589744	4048.205128	4105.641026	4491.282051	4443.076923	4323.076923	3994.871795	1720.000000	1688.000000	64.598000	0.000000	0.000000	0.000000	0.000000	4	4	4	4	4	4	4	4	3	3	4	4	4	4	4	4	0	0	0	1	0.000	0.000
111.000000	4272.307692	4278.974359	4413.846154	3604.102564	4381.025641	4576.410256	4657.435897	4543.589744	4051.794872	4109.230769	4494.358974	4442.564103	4326.153846	3994.871795	1718.000000	1686.000000	64.606000	0.000000	0.000000	0.000000	0.000000	4	4	4	4	4	4	4	4	3	3	4	4	4	4	4	4	0	0	0	1	0.000	0.000
112.000000	4279.487179	4280.000000	4408.205128	3606.153846	4384.615385	4569.743590	4649.743590	4530.769231	4043.076923	4104.102564	4489.230769	4429.743590	4318.461538	3986.153846	1717.000000	1687.000000	64.612000	0.000000	0.000000	0.000000	0.000000	4	4	4	4	4	4	4	4	3	3	4	4	4	4	4	4	0	0	0	1	0.000	0.000
113.000000	4269.230769	4270.256410	4398.461538	3601.025641	4380.512821	4574.358974	4652.307692	4518.974359	4030.256410	4095.384615	4476.923077	4423.076923	4310.769231	3987.692308	1718.000000	1684.000000	64.620000	0.000000	0.000000	0.000000	0.000000	4	4	4	4	4	4	4	4	3	3	4	4	4	4	4	4	0	0	0	1	0.000	0.000
114.000000	4266.666667	4266.666667	4400.000000	3600.512821	4379.487179	4580.512821	4657.435897	4521.025641	4034.358974	4098.974359	4477.948718	4431.282051	4309.743590	3990.769231	1717.000000	1684.000000	64.628000	0.000000	0.000000	0.000000	0.000000	4	4	4	4	4	4	4	4	3	3	4	4	4	4	4	4	0	0	0	1	0.000	0.000
115.000000	4279.487179	4272.820513	4406.153846	3603.589744	4376.410256	4571.794872	4653.846154	4529.230769	4046.666667	4108.717949	4492.820513	4441.025641	4320.000000	3986.153846	1716.000000	1682.000000	64.636000	0.000000	0.000000	0.000000	0.000000	4	4	4	4	4	4	4	4	3	3	4	4	4	4	4	4	0	0	0	1	0.000	0.000
116.000000	4280.000000	4272.820513	4401.538462	3600.512821	4371.282051	4570.256410	4657.948718	4536.410256	4049.230769	4108.205128	4493.333333	4434.871795	4327.692308	3987.692308	1716.000000	1683.000000	64.645000	0.000000	0.000000	0.000000	0.000000	4	4	4	4	4	4	4	4	3	3	4	4	4	4	4	4	0	0	0	1	0.000	0.000
117.000000	4272.307692	4268.717949	4396.923077	3600.512821	4374.358974	4586.153846	4670.769231	4540.000000	4048.205128	4104.615385	4477.435897	4424.615385	4321.025641	3992.820513	1716.000000	1684.000000	64.652000	0.000000	0.000000	0.000000	0.000000	4	4	4	4	4	4	4	4	3	3	4	4	4	4	4	4	0	0	0	1	0.000	0.000
118.000000	4275.384615	4268.717949	4396.923077	3602.564103	4380.000000	4584.102564	4662.051282	4532.307692	4044.102564	4104.102564	4473.333333	4426.153846	4313.846154	3989.230769	1718.000000	1685.000000	64.659000	0.000000	0.000000	0.000000	0.000000	4	4	4	4	4	4	4	4	3	3	4	4	4	4	4	4	0	0	0	1	0.000	0.000
119.000000	4278.974359	4266.666667	4392.307692	3595.384615	4376.410256	4565.641026	4647.692308	4521.538462	4036.410256	4100.512821	4480.512821	4425.641026	4314.358974	3981.538462	1718.000000	1685.000000	64.667000	0.000000	0.000000	0.000000	0.000000	4	4	4	4	4	4	4	4	3	3	4	4	4	4	4	4	0	0	0	1	0.000	0.000
120.000000	4276.923077	4265.128205	4391.794872	3592.307692	4370.256410	4568.717949	4655.384615	4520.000000	4033.333333	4093.333333	4472.307692	4415.384615	4311.794872	3975.384615	1720.000000	1686.000000	64.674000	0.000000	0.000000	0.000000	0.000000	4	4	4	4	4	4	4	4	3	3	4	4	4	4	4	4	0	0	0	1	0.000	0.000
121.000000	4274.871795	4265.641026	4395.897436	3598.974359	4371.794872	4581.025641	4665.128205	4523.589744	4035.384615	4088.205128	4457.435897	4410.256410	4304.102564	3970.256410	1720.000000	1688.000000	64.682000	0.000000	0.000000	0.000000	0.000000	4	4	4	4	4	4	4	4	3	3	4	4	4	4	4	4	0	0	0	1	0.000	0.000
122.000000	4276.410256	4264.615385	4396.923077	3602.051282	4376.923077	4580.000000	4663.076923	4533.333333	4037.948718	4094.358974	4463.076923	4413.333333	4305.641026	3970.256410	1723.000000	1691.000000	64.690000	0.000000	0.000000	0.000000	0.000000	4	4	4	4	4	4	4	4	3	3	4	4	4	4	4	4	0	0	0	1	0.000	0.000
123.000000	4276.410256	4267.692308	4394.358974	3600.000000	4374.871795	4580.000000	4662.564103	4536.923077	4035.384615	4101.025641	4474.871795	4420.512821	4309.230769	3978.974359	1724.000000	1691.000000	64.697000	0.000000	0.000000	0.000000	0.000000	4	4	4	4	4	4	4	4	3	3	4	4	4	4	4	4	0	0	0	1	0.000	0.000
124.000000	4280.512821	4273.846154	4395.897436	3602.564103	4373.333333	4583.589744	4663.076923	4532.307692	4037.435897	4101.025641	4473.333333	4427.179487	4309.743590	3989.743590	1725.000000	1693.000000	64.705000	0.000000	0.000000	0.000000	0.000000	4	4	4	4	4	4	4	4	3	3	4	4	4	4	4	4	0	0	0	1	0.000	0.000
125.000000	4295.897436	4279.487179	4405.641026	3605.641026	4380.512821	4581.025641	4667.692308	4543.589744	4052.307692	4102.051282	4473.333333	4430.769231	4317.948718	3992.307692	1728.000000	1691.000000	64.713000	0.000000	0.000000	0.000000	0.000000	4	4	4	4	4	4	4	4	3	3	4	4	4	4	4	4	0	0	0	1	0.000	0.000
126.000000	4305.128205	4276.410256	4409.743590	3604.615385	4384.102564	4581.025641	4673.846154	4554.358974	4063.076923	4106.153846	4477.948718	4431.282051	4322.051282	3988.205128	1727.000000	1690.000000	64.721000	0.000000	0.000000	0.000000	0.000000	4	4	4	4	4	4	4	4	3	3	4	4	4	4	4	4	0	0	0	1	0.000	0.000
127.000000	4298.461538	4272.820513	4404.102564	3605.128205	4380.000000	4585.641026	4671.794872	4541.025641	4051.282051	4105.128205	4475.384615	4429.743590	4316.923077	3986.153846	1730.000000	1687.000000	64.729000	0.000000	0.000000	0.000000	0.000000	4	4	4	4	4	4	4	4	3	3	4	4	4	4	4	4	0	0	0	1	0.000	0.000
128.000000	4290.256410	4275.897436	4402.564103	3605.641026	4380.000000	4586.153846	4670.256410	4530.769231	4041.538462	4104.102564	4473.846154	4429.230769	4316.923077	3989.743590	1730.000000	1686.000000	64.738000	0.000000	0.000000	0.000000	0.000000	4	4	4	4	4	4	4	4	3	3	4	4	4	4	4	4	0	0	0	1	0.000	0.000
0.000000	4295.897436	4272.820513	4406.666667	3605.641026	4381.538462	4583.076923	4672.820513	4539.487179	4051.282051	4105.641026	4476.923077	4435.897436	4321.538462	3991.282051	1732.000000	1685.000000	64.746000	0.000000	0.000000	0.000000	0.000000	4	4	4	4	4	4	4	4	3	3	4	4	4	4	4	4	0	0	0	1	0.000	0.000
1.000000	4301.538462	4269.230769	4404.615385	3603.589744	4379.487179	4585.128205	4671.282051	4541.025641	4056.410256	4102.564103	4476.410256	4438.974359	4319.487179	3990.256410	1732.000000	1683.000000	64.754000	0.000000	0.000000	0.000000	0.000000	4	4	4	4	4	4	4	4	3	3	4	4	4	4	4	4	0	0	0	1	0.000	0.000
2.000000	4296.923077	4274.358974	4399.487179	3604.615385	4383.076923	4591.282051	4671.282051	4537.435897	4054.358974	4105.641026	4471.794872	4430.256410	4316.923077	3989.230769	1733.000000	1684.000000	64.762000	0.000000	0.000000	0.000000	0.000000	4	4	4	4	4	4	4	4	3	3	4	4	4	4	4	4	0	0	0	1	0.000	0.000
3.000000	4292.820513	4271.794872	4400.512821	3605.641026	4380.512821	4589.743590	4678.974359	4540.000000	4055.897436	4111.794872	4468.717949	4426.153846	4315.384615	3981.538462	1735.000000	1683.000000	64.769000	0.000000	0.000000	0.000000	0.000000	4	4	4	4	4	4	4	4	3	3	4	4	4	4	4	4	0	0	0	1	0.000	0.000
4.000000	4291.794872	4260.512821	4396.923077	3602.564103	4373.846154	4575.384615	4682.564103	4538.461538	4048.205128	4106.153846	4465.128205	4427.179487	4311.794872	3977.948718	1736.000000	1683.000000	64.777000	0.000000	0.000000	0.000000	0.000000	4	4	4	4	4	4	4	4	3	3	4	4	4	4	4	4	0	0	0	1	0.000	0.000
5.000000	4292.307692	4265.641026	4395.897436	3603.076923	4378.461538	4571.794872	4677.948718	4533.846154	4037.948718	4098.974359	4459.487179	4427.179487	4311.794872	3984.102564	1737.000000	1683.000000	64.784000	0.000000	0.000000	0.000000	0.000000	4	4	4	4	4	4	4	4	3	3	4	4	4	4	4	4	0	0	0	1	0.000	0.000
6.000000	4295.897436	4272.820513	4406.666667	3606.153846	4381.025641	4584.102564	4678.974359	4535.897436	4041.538462	4102.564103	4455.897436	4426.666667	4310.256410	3977.948718	1738.000000	1685.000000	64.792000	0.000000	0.000000	0.000000	0.000000	4	4	4	4	4	4	4	4	3	3	4	4	4	4	4	4	0	0	0	1	0.000	0.000
7.000000	4302.051282	4269.230769	4410.769231	3604.102564	4369.743590	4587.179487	4686.666667	4541.538462	4047.692308	4106.153846	4458.461538	4427.692308	4307.179487	3971.282051	1740.000000	1684.000000	64.800000	0.000000	0.000000	0.000000	0.000000	4	4	4	4	4	4	4	4	3	3	4	4	4	4	4	4	0	0	0	1	0.000	0.000
8.000000	4307.692308	4271.794872	4404.102564	3602.564103	4363.076923	4587.179487	4690.256410	4541.538462	4048.205128	4100.000000	4462.051282	4428.205128	4313.846154	3986.153846	1740.000000	1686.000000	64.808000	0.000000	0.000000	0.000000	0.000000	4	4	4	4	4	4	4	4	3	3	4	4	4	4	4	4	0	0	0	1	0.000	0.000
9.000000	4307.179487	4275.384615	4404.102564	3607.179487	4369.230769	4596.410256	4687.179487	4541.538462	4054.871795	4095.897436	4461.538462	4428.717949	4317.948718	3994.358974	1742.000000	1685.000000	64.816000	0.000000	0.000000	0.000000	0.000000	4	4	4	4	4	4	4	4	3	3	4	4	4	4	4	4	0	0	0	1	0.000	0.000
10.000000	4308.205128	4275.897436	4405.641026	3608.717949	4375.384615	4596.410256	4685.641026	4542.564103	4054.871795	4093.333333	4457.948718	4426.666667	4309.743590	3986.153846	1741.000000	1685.000000	64.825000	0.000000	0.000000	0.000000	0.000000	4	4	4	4	4	4	4	4	3	3	4	4	4	4	4	4	0	0	0	1	0.000	0.000
11.000000	4311.794872	4279.487179	4399.487179	3607.179487	4381.025641	4584.102564	4687.692308	4538.974359	4043.589744	4089.743590	4454.871795	4425.128205	4308.205128	3986.666667	1742.000000	1685.000000	64.833000	0.000000	0.000000	0.000000	0.000000	4	4	4	4	4	4	4	4	3	3	4	4	4	4	4	4	0	0	0	1	0.000	0.000
12.000000	4310.256410	4283.076923	4400.512821	3609.230769	4382.051282	4584.615385	4688.717949	4538.974359	4047.692308	4099.487179	4458.461538	4429.743590	4317.948718	3979.487179	1744.000000	1683.000000	64.839000	0.000000	0.000000	0.000000	0.000000	4	4	4	4	4	4	4	4	3	3	4	4	4	4	4	4	0	0	0	1	0.000	0.000
13.000000	4305.641026	4278.974359	4403.076923	3608.717949	4378.974359	4590.769231	4683.589744	4538.461538	4053.333333	4108.205128	4463.076923	4431.794872	4318.974359	3968.205128	1744.000000	1684.000000	64.847000	0.000000	0.000000	0.000000	0.000000	4	4	4	4	4	4	4	4	3	3	4	4	4	4	4	4	0	0	0	1	0.000	0.000
14.000000	4301.025641	4273.846154	4389.230769	3603.589744	4377.948718	4586.666667	4681.538462	4534.871795	4042.051282	4095.897436	4454.871795	4416.923077	4308.205128	3975.384615	1744.000000	1683.000000	64.854000	0.000000	0.000000	0.000000	0.000000	4	4	4	4	4	4	4	4	3	3	4	4	4	4	4	4	0	0	0	1	0.000	0.000
15.000000	4296.410256	4278.461538	4383.589744	3605.641026	4377.948718	4584.102564	4687.179487	4535.897436	4035.897436	4086.666667	4444.102564	4407.692308	4307.692308	3982.051282	1745.000000	1682.000000	64.862000	0.000000	0.000000	0.000000	0.000000	4	4	4	4	4	4	4	4	3	3	4	4	4	4	4	4	0	0	0	1	0.000	0.000
16.000000	4294.871795	4274.358974	4388.717949	3606.153846	4374.871795	4584.102564	4684.102564	4530.769231	4036.410256	4094.358974	4448.205128	4420.512821	4314.871795	3974.358974	1745.000000	1681.000000	64.869000	0.000000	0.000000	0.000000	0.000000	4	4	4	4	4	4	4	4	3	3	4	4	4	4	4	4	0	0	0	1	0.000	0.000
