Counter	AF3	F7	F3	FC5	T7	P7	O1	O2	P8	T8	FC6	F4	F8	AF4	GyroX	GyroY	Timestamp	FUNC_ID	FUNC_VALUE	MARKER	SYNC_SIGNAL	CMS_Q	DRL_Q	AF3_Q	F7_Q	F3_Q	FC5_Q	T7_Q	P7_Q	O1_Q	O2_Q	P8_Q	T8_Q	FC6_Q	F4_Q	F8_Q	AF4_Q	Blink	LeftWink	RightWink	EyesOpen	LeftEyeLid	RightEyelid
98.000000	4355.897436	4388.205128	4409.743590	3713.846154	4380.512821	4614.871795	4628.717949	4523.076923	4025.128205	4104.615385	4518.461538	4437.948718	4265.641026	3951.282051	1735.000000	1678.000000	81.827000	0.000000	0.000000	0.000000	0.000000	1	1	0	0	0	0	0	0	0	0	0	0	0	0	0	0	0	0	0	1	0.000	0.000
99.000000	4355.897436	4389.230769	4408.205128	3711.794872	4380.512821	4613.333333	4629.230769	4524.102564	4024.102564	4104.615385	4517.435897	4440.512821	4266.153846	3951.282051	1737.000000	1677.000000	81.828000	0.000000	0.000000	0.000000	0.000000	1	1	0	0	0	0	0	0	0	0	0	0	0	0	0	0	0	0	0	1	0.000	0.000
100.000000	4353.333333	4387.179487	4408.205128	3710.769231	4383.076923	4609.743590	4627.692308	4520.512821	4020.512821	4104.102564	4517.948718	4441.538462	4265.641026	3950.769231	1736.000000	1679.000000	81.836000	0.000000	0.000000	0.000000	0.000000	1	1	0	0	0	0	0	0	0	0	0	0	0	0	0	0	0	0	0	1	0.000	0.000
101.000000	4355.384615	4386.666667	4406.666667	3713.846154	4384.102564	4609.743590	4626.666667	4520.512821	4020.512821	4104.615385	4518.461538	4440.000000	4265.128205	3953.846154	1737.000000	1678.000000	81.844000	0.000000	0.000000	0.000000	0.000000	1	1	0	0	0	0	0	0	0	0	0	0	0	0	0	0	0	0	0	1	0.000	0.000
102.000000	4358.461538	4387.179487	4405.641026	3715.384615	4382.051282	4611.794872	4629.743590	4522.051282	4022.051282	4104.102564	4517.435897	4442.051282	4265.641026	3956.410256	1735.000000	1678.000000	81.856000	0.000000	0.000000	0.000000	0.000000	1	1	0	0	0	0	0	0	0	0	0	0	0	0	0	0	0	0	0	1	0.000	0.000
103.000000	4357.435897	4386.666667	4407.692308	3712.820513	4381.538462	4612.820513	4632.307692	4520.000000	4022.051282	4104.615385	4516.410256	4442.051282	4265.641026	3953.333333	1736.000000	1678.000000	81.859000	0.000000	0.000000	0.000000	0.000000	1	1	0	0	0	0	0	0	0	0	0	0	0	0	0	0	0	0	0	1	0.000	0.000
104.000000	4357.435897	4385.641026	4408.205128	3709.743590	4383.589744	4610.769231	4631.282051	4521.025641	4023.589744	4104.102564	4517.948718	4436.923077	4265.128205	3950.256410	1736.000000	1677.000000	81.867000	0.000000	0.000000	0.000000	0.000000	1	1	0	0	0	0	0	0	0	0	0	0	0	0	0	0	0	0	0	1	0.000	0.000
105.000000	4357.435897	4387.179487	4408.205128	3710.769231	4383.589744	4608.717949	4630.769231	4525.128205	4024.102564	4104.615385	4520.000000	4438.461538	4265.128205	3954.871795	1735.000000	1679.000000	81.875000	0.000000	0.000000	0.000000	0.000000	1	1	0	0	0	0	0	0	0	0	0	0	0	0	0	0	0	0	0	1	0.000	0.000
106.000000	4355.897436	4388.717949	4407.692308	3712.307692	4382.564103	4610.256410	4630.769231	4524.102564	4022.051282	4104.102564	4518.461538	4439.487179	4265.641026	3956.923077	1736.000000	1677.000000	81.889000	0.000000	0.000000	0.000000	0.000000	1	1	0	0	0	0	0	0	0	0	0	0	0	0	0	0	0	0	0	1	0.000	0.000
107.000000	4357.435897	4387.179487	4407.179487	3711.794872	4382.564103	4611.282051	4629.743590	4520.512821	4022.051282	4104.615385	4517.435897	4437.948718	4265.641026	3951.794872	1736.000000	1678.000000	81.891000	0.000000	0.000000	0.000000	0.000000	1	1	0	0	0	0	0	0	0	0	0	0	0	0	0	0	0	0	0	1	0.000	0.000
108.000000	4359.487179	4387.179487	4405.641026	3711.794872	4382.564103	4611.282051	4630.256410	4523.076923	4023.076923	4104.102564	4517.435897	4436.923077	4265.641026	3949.230769	1737.000000	1678.000000	81.898000	0.000000	0.000000	0.000000	0.000000	1	1	0	0	0	0	0	0	0	0	0	0	0	0	0	0	0	0	0	1	0.000	0.000
109.000000	4356.923077	4389.230769	4406.666667	3712.307692	4381.025641	4610.256410	4630.256410	4524.102564	4021.538462	4104.615385	4516.923077	4440.000000	4265.641026	3953.846154	1735.000000	1678.000000	81.906000	0.000000	0.000000	0.000000	0.000000	1	1	0	0	0	0	0	0	0	0	0	0	0	0	0	0	0	0	0	1	0.000	0.000
110.000000	4354.358974	4387.179487	4408.205128	3712.307692	4382.564103	4610.256410	4631.282051	4523.589744	4021.538462	4104.615385	4516.410256	4439.487179	4266.153846	3954.358974	1737.000000	1678.000000	81.919000	0.000000	0.000000	0.000000	0.000000	1	1	0	0	0	0	0	0	0	0	0	0	0	0	0	0	0	0	0	1	0.000	0.000
111.000000	4354.358974	4384.102564	4409.230769	3713.333333	4384.102564	4609.230769	4631.282051	4523.076923	4021.538462	4104.615385	4517.948718	4440.000000	4265.641026	3951.282051	1736.000000	1678.000000	81.922000	0.000000	0.000000	0.000000	0.000000	1	1	0	0	0	0	0	0	0	0	0	0	0	0	0	0	0	0	0	1	0.000	0.000
112.000000	4354.358974	4386.153846	4408.205128	3712.307692	4382.051282	4611.282051	4629.743590	4523.076923	4022.051282	4104.615385	4518.974359	4437.435897	4264.615385	3949.743590	1736.000000	1678.000000	81.930000	0.000000	0.000000	0.000000	0.000000	1	1	0	0	0	0	0	0	0	0	0	0	0	0	0	0	0	0	0	1	0.000	0.000
113.000000	4356.410256	4387.692308	4407.692308	3710.769231	4380.512821	4611.794872	4629.230769	4522.564103	4022.051282	4104.615385	4520.000000	4437.435897	4265.128205	3951.794872	1736.000000	1678.000000	81.937000	0.000000	0.000000	0.000000	0.000000	1	1	0	0	0	0	0	0	0	0	0	0	0	0	0	0	0	0	0	1	0.000	0.000
114.000000	4356.410256	4389.230769	4408.205128	3711.794872	4382.564103	4609.743590	4630.256410	4522.564103	4022.051282	4104.615385	4520.000000	4439.487179	4265.641026	3952.820513	1737.000000	1678.000000	81.951000	0.000000	0.000000	0.000000	0.000000	1	1	0	0	0	0	0	0	0	0	0	0	0	0	0	0	0	0	0	1	0.000	0.000
115.000000	4353.846154	4388.717949	4409.230769	3710.769231	4383.076923	4610.769231	4629.743590	4523.076923	4023.589744	4104.102564	4516.923077	4441.025641	4264.615385	3953.333333	1736.000000	1677.000000	81.953000	0.000000	0.000000	0.000000	0.000000	1	1	0	0	0	0	0	0	0	0	0	0	0	0	0	0	0	0	0	1	0.000	0.000
116.000000	4354.358974	4386.666667	4409.230769	3712.307692	4384.102564	4611.794872	4630.769231	4523.589744	4024.102564	4104.615385	4515.384615	4438.974359	4264.102564	3952.307692	1736.000000	1679.000000	81.961000	0.000000	0.000000	0.000000	0.000000	1	1	0	0	0	0	0	0	0	0	0	0	0	0	0	0	0	0	0	1	0.000	0.000
117.000000	4355.897436	4386.666667	4408.717949	3715.384615	4384.615385	4610.769231	4631.794872	4523.076923	4023.076923	4104.102564	4518.974359	4437.948718	4264.102564	3951.282051	1738.000000	1678.000000	81.969000	0.000000	0.000000	0.000000	0.000000	1	1	0	0	0	0	0	0	0	0	0	0	0	0	0	0	0	0	0	1	0.000	0.000
118.000000	4355.384615	4388.717949	4407.179487	3714.358974	4381.538462	4612.820513	4631.282051	4522.564103	4023.076923	4104.615385	4518.974359	4438.974359	4264.615385	3951.794872	1736.000000	1679.000000	81.983000	0.000000	0.000000	0.000000	0.000000	1	1	0	0	0	0	0	0	0	0	0	0	0	0	0	0	0	0	0	1	0.000	0.000
119.000000	4354.358974	4388.717949	4405.641026	3709.743590	4380.512821	4614.871795	4631.282051	4521.538462	4023.076923	4104.102564	4517.435897	4438.974359	4267.179487	3953.333333	1737.000000	1679.000000	81.984000	0.000000	0.000000	0.000000	0.000000	1	1	0	0	0	0	0	0	0	0	0	0	0	0	0	0	0	0	0	1	0.000	0.000
120.000000	4354.871795	4387.179487	4407.692308	3708.717949	4381.538462	4611.794872	4631.794872	4520.512821	4023.076923	4104.615385	4519.487179	4438.974359	4267.179487	3953.333333	1736.000000	1678.000000	81.993000	0.000000	0.000000	0.000000	0.000000	1	1	0	0	0	0	0	0	0	0	0	0	0	0	0	0	0	0	0	1	0.000	0.000
121.000000	4356.410256	4385.641026	4407.692308	3711.282051	4383.589744	4610.256410	4631.794872	4522.051282	4023.589744	4104.102564	4521.025641	4437.435897	4264.615385	3950.769231	1736.000000	1678.000000	82.001000	0.000000	0.000000	0.000000	0.000000	1	1	0	0	0	0	0	0	0	0	0	0	0	0	0	0	0	0	0	1	0.000	0.000
122.000000	4355.384615	4384.102564	4408.205128	3711.282051	4383.589744	4611.794872	4631.794872	4523.589744	4023.076923	4104.615385	4520.512821	4437.948718	4265.128205	3952.307692	1736.000000	1678.000000	82.015000	0.000000	0.000000	0.000000	0.000000	1	1	0	0	0	0	0	0	0	0	0	0	0	0	0	0	0	0	0	1	0.000	0.000
123.000000	4354.358974	4385.128205	4408.205128	3711.282051	4382.051282	4612.307692	4631.282051	4523.589744	4024.615385	4104.102564	4518.461538	4437.948718	4266.666667	3955.384615	1737.000000	1678.000000	82.017000	0.000000	0.000000	0.000000	0.000000	1	1	0	0	0	0	0	0	0	0	0	0	0	0	0	0	0	0	0	1	0.000	0.000
124.000000	4356.410256	4386.153846	4408.717949	3713.333333	4380.512821	4611.282051	4630.256410	4523.076923	4024.102564	4104.615385	4515.897436	4438.974359	4266.153846	3952.820513	1736.000000	1678.000000	82.023000	0.000000	0.000000	0.000000	0.000000	1	1	0	0	0	0	0	0	0	0	0	0	0	0	0	0	0	0	0	1	0.000	0.000
125.000000	4358.974359	4387.179487	4407.179487	3713.846154	4383.076923	4610.256410	4630.256410	4523.076923	4021.025641	4104.615385	4515.384615	4439.487179	4265.641026	3951.282051	1737.000000	1679.000000	82.030000	0.000000	0.000000	0.000000	0.000000	1	1	0	0	0	0	0	0	0	0	0	0	0	0	0	0	0	0	0	1	0.000	0.000
126.000000	4355.897436	4388.717949	4406.666667	3711.282051	4383.589744	4609.230769	4629.230769	4522.051282	4022.051282	4104.615385	4518.974359	4442.051282	4266.153846	3953.333333	1736.000000	1678.000000	82.044000	0.000000	0.000000	0.000000	0.000000	1	1	0	0	0	0	0	0	0	0	0	0	0	0	0	0	0	0	0	1	0.000	0.000
127.000000	4352.820513	4388.205128	4407.692308	3712.307692	4382.051282	4611.794872	4628.717949	4523.076923	4024.615385	4104.615385	4520.000000	4440.512821	4266.666667	3953.333333	1736.000000	1678.000000	82.048000	0.000000	0.000000	0.000000	0.000000	1	1	0	0	0	0	0	0	0	0	0	0	0	0	0	0	0	0	0	1	0.000	0.000
128.000000	4353.846154	4385.641026	4408.717949	3713.333333	4384.102564	4613.333333	4630.256410	4523.589744	4022.051282	4104.615385	4516.923077	4440.000000	4265.641026	3952.820513	1736.000000	1678.000000	82.056000	0.000000	0.000000	0.000000	0.000000	1	1	0	0	0	0	0	0	0	0	0	0	0	0	0	0	0	0	0	1	0.000	0.000
0.000000	4355.384615	4387.692308	4408.205128	3711.282051	4385.641026	4611.794872	4630.769231	4524.102564	4020.512821	4104.615385	4516.923077	4440.512821	4265.128205	3954.871795	1737.000000	1678.000000	82.062000	0.000000	0.000000	0.000000	0.000000	1	1	0	0	0	0	0	0	0	0	0	0	0	0	0	0	0	0	0	1	0.000	0.000
1.000000	4355.897436	4387.692308	4407.692308	3711.794872	4382.051282	4610.256410	4628.717949	4524.615385	4022.564103	4104.102564	4521.025641	4441.025641	4266.666667	3954.871795	1736.000000	1678.000000	82.077000	0.000000	0.000000	0.000000	0.000000	1	1	0	0	0	0	0	0	0	0	0	0	0	0	0	0	0	0	0	1	0.000	0.000
2.000000	4356.410256	4386.153846	4408.205128	3712.307692	4383.076923	4613.846154	4629.743590	4524.102564	4024.102564	4104.615385	4521.025641	4438.461538	4267.692308	3952.307692	1737.000000	1678.000000	82.078000	0.000000	0.000000	0.000000	0.000000	1	1	0	0	0	0	0	0	0	0	0	0	0	0	0	0	0	0	0	1	0.000	0.000
3.000000	4356.410256	4386.666667	4407.692308	3709.230769	4386.153846	4612.820513	4631.282051	4522.564103	4023.076923	4104.102564	4517.435897	4439.487179	4266.153846	3952.307692	1736.000000	1678.000000	82.086000	0.000000	0.000000	0.000000	0.000000	1	1	0	0	0	0	0	0	0	0	0	0	0	0	0	0	0	0	0	1	0.000	0.000
4.000000	4356.410256	4387.179487	4407.692308	3708.717949	4385.128205	4608.205128	4630.769231	4521.025641	4021.538462	4104.615385	4515.384615	4442.564103	4264.615385	3952.307692	1737.000000	1679.000000	82.095000	0.000000	0.000000	0.000000	0.000000	1	1	0	0	0	0	0	0	0	0	0	0	0	0	0	0	0	0	0	1	0.000	0.000
5.000000	4356.923077	4385.128205	4407.692308	3710.769231	4383.076923	4609.743590	4629.230769	4522.051282	4021.538462	4104.102564	4517.435897	4441.538462	4265.641026	3951.282051	1736.000000	1678.000000	82.108000	0.000000	0.000000	0.000000	0.000000	1	1	0	0	0	0	0	0	0	0	0	0	0	0	0	0	0	0	0	1	0.000	0.000
6.000000	4355.897436	4386.666667	4405.641026	3713.333333	4383.589744	4613.846154	4629.230769	4523.589744	4022.564103	4104.615385	4520.000000	4438.974359	4266.666667	3951.282051	1736.000000	1678.000000	82.108000	0.000000	0.000000	0.000000	0.000000	1	1	0	0	0	0	0	0	0	0	0	0	0	0	0	0	0	0	0	1	0.000	0.000
7.000000	4355.384615	4387.179487	4406.153846	3712.820513	4382.051282	4610.769231	4631.794872	4523.076923	4020.000000	4104.102564	4518.974359	4440.000000	4266.153846	3950.769231	1738.000000	1677.000000	82.118000	0.000000	0.000000	0.000000	0.000000	1	1	0	0	0	0	0	0	0	0	0	0	0	0	0	0	0	0	0	1	0.000	0.000
8.000000	4355.897436	4385.641026	4408.717949	3711.794872	4382.051282	4606.666667	4631.282051	4522.051282	4018.461538	4104.615385	4516.923077	4441.538462	4265.128205	3949.743590	1735.000000	1678.000000	82.125000	0.000000	0.000000	0.000000	0.000000	1	1	0	0	0	0	0	0	0	0	0	0	0	0	0	0	0	0	0	1	0.000	0.000
9.000000	4354.358974	4386.666667	4406.666667	3711.794872	4384.615385	4608.205128	4628.717949	4524.615385	4021.025641	4104.102564	4516.923077	4437.948718	4266.153846	3951.282051	1737.000000	1679.000000	82.139000	0.000000	0.000000	0.000000	0.000000	1	1	0	0	0	0	0	0	0	0	0	0	0	0	0	0	0	0	0	1	0.000	0.000
10.000000	4353.333333	4387.692308	4404.615385	3712.820513	4383.076923	4610.769231	4628.717949	4523.589744	4022.051282	4104.615385	4518.461538	4437.948718	4266.666667	3953.333333	1736.000000	1678.000000	82.141000	0.000000	0.000000	0.000000	0.000000	1	1	0	0	0	0	0	0	0	0	0	0	0	0	0	0	0	0	0	1	0.000	0.000
11.000000	4355.384615	4386.666667	4405.641026	3711.794872	4382.051282	4610.256410	4630.769231	4521.538462	4022.564103	4104.615385	4517.948718	4439.487179	4266.666667	3950.256410	1736.000000	1679.000000	82.149000	0.000000	0.000000	0.000000	0.000000	1	1	0	0	0	0	0	0	0	0	0	0	0	0	0	0	0	0	0	1	0.000	0.000
12.000000	4353.846154	4385.128205	4407.179487	3710.256410	4382.564103	4608.717949	4628.717949	4522.564103	4024.102564	4104.615385	4518.974359	4441.538462	4267.692308	3950.256410	1736.000000	1678.000000	82.156000	0.000000	0.000000	0.000000	0.000000	1	1	0	0	0	0	0	0	0	0	0	0	0	0	0	0	0	0	0	1	0.000	0.000
13.000000	4351.794872	4387.692308	4407.692308	3710.769231	4383.589744	4611.794872	4629.230769	4525.128205	4025.128205	4104.615385	4520.512821	4440.000000	4266.666667	3954.358974	1737.000000	1678.000000	82.170000	0.000000	0.000000	0.000000	0.000000	1	1	0	0	0	0	0	0	0	0	0	0	0	0	0	0	0	0	0	1	0.000	0.000
14.000000	4352.820513	4389.230769	4407.179487	3711.794872	4382.564103	4611.794872	4629.743590	4523.076923	4023.589744	4104.615385	4519.487179	4437.948718	4265.128205	3953.333333	1736.000000	1677.000000	82.172000	0.000000	0.000000	0.000000	0.000000	1	1	0	0	0	0	0	0	0	0	0	0	0	0	0	0	0	0	0	1	0.000	0.000
15.000000	4355.384615	4388.205128	4405.641026	3712.307692	4383.076923	4610.769231	4629.743590	4521.538462	4022.564103	4104.615385	4518.461538	4436.923077	4267.179487	3949.743590	1736.000000	1679.000000	82.180000	0.000000	0.000000	0.000000	0.000000	1	1	0	0	0	0	0	0	0	0	0	0	0	0	0	0	0	0	0	1	0.000	0.000
16.000000	4356.410256	4386.666667	4407.179487	3710.769231	4382.564103	4610.769231	4630.256410	4523.589744	4022.051282	4104.102564	4517.948718	4439.487179	4268.717949	3950.769231	1736.000000	1677.000000	82.188000	0.000000	0.000000	0.000000	0.000000	1	1	0	0	0	0	0	0	0	0	0	0	0	0	0	0	0	0	0	1	0.000	0.000
17.000000	4356.923077	4388.205128	4409.230769	3710.256410	4383.076923	4610.769231	4631.282051	4526.666667	4023.076923	4104.615385	4517.435897	4439.487179	4265.641026	3950.256410	1736.000000	1679.000000	82.200000	0.000000	0.000000	0.000000	0.000000	1	1	0	0	0	0	0	0	0	0	0	0	0	0	0	0	0	0	0	1	0.000	0.000
18.000000	4356.410256	4387.179487	4406.666667	3712.820513	4383.076923	4610.769231	4631.794872	4524.102564	4022.051282	4104.102564	4517.948718	4437.948718	4264.615385	3949.743590	1736.000000	1678.000000	82.203000	0.000000	0.000000	0.000000	0.000000	1	1	0	0	0	0	0	0	0	0	0	0	0	0	0	0	0	0	0	1	0.000	0.000
19.000000	4356.410256	4385.128205	4403.076923	3712.307692	4383.076923	4611.282051	4631.282051	4521.025641	4022.051282	4104.615385	4518.974359	4437.948718	4265.641026	3953.846154	1736.000000	1678.000000	82.212000	0.000000	0.000000	0.000000	0.000000	1	1	0	0	0	0	0	0	0	0	0	0	0	0	0	0	0	0	0	1	0.000	0.000
20.000000	4356.410256	4387.692308	4406.153846	3710.256410	4383.076923	4610.256410	4629.230769	4522.051282	4025.641026	4104.102564	4518.974359	4439.487179	4265.641026	3953.846154	1736.000000	1678.000000	82.219000	0.000000	0.000000	0.000000	0.000000	1	1	0	0	0	0	0	0	0	0	0	0	0	0	0	0	0	0	0	1	0.000	0.000
21.000000	4359.487179	4389.743590	4409.230769	3711.282051	4382.564103	4609.743590	4628.205128	4523.589744	4025.641026	4104.615385	4518.974359	4440.512821	4265.128205	3952.307692	1735.000000	1677.000000	82.233000	0.000000	0.000000	0.000000	0.000000	1	1	0	0	0	0	0	0	0	0	0	0	0	0	0	0	0	0	0	1	0.000	0.000
22.000000	4360.000000	4388.717949	4406.666667	3711.794872	4384.102564	4613.333333	4629.743590	4523.076923	4021.538462	4104.102564	4520.512821	4440.000000	4265.641026	3953.846154	1736.000000	1679.000000	82.235000	0.000000	0.000000	0.000000	0.000000	1	1	0	0	0	0	0	0	0	0	0	0	0	0	0	0	0	0	0	1	0.000	0.000
23.000000	4356.410256	4386.666667	4406.153846	3709.743590	4385.128205	4614.871795	4630.769231	4522.564103	4022.051282	4104.615385	4520.512821	4438.974359	4266.153846	3952.820513	1737.000000	1677.000000	82.243000	0.000000	0.000000	0.000000	0.000000	1	1	0	0	0	0	0	0	0	0	0	0	0	0	0	0	0	0	0	1	0.000	0.000
24.000000	4356.923077	4386.666667	4409.230769	3710.256410	4384.102564	4611.282051	4628.717949	4522.564103	4024.615385	4104.102564	4519.487179	4437.948718	4265.641026	3950.769231	1736.000000	1679.000000	82.250000	0.000000	0.000000	0.000000	0.000000	1	1	0	0	0	0	0	0	0	0	0	0	0	0	0	0	0	0	0	1	0.000	0.000
25.000000	4357.948718	4387.179487	4409.230769	3712.307692	4382.051282	4607.692308	4625.641026	4522.051282	4022.564103	4104.615385	4521.025641	4440.000000	4264.615385	3953.333333	1736.000000	1678.000000	82.262000	0.000000	0.000000	0.000000	0.000000	1	1	0	0	0	0	0	0	0	0	0	0	0	0	0	0	0	0	0	1	0.000	0.000
26.000000	4354.358974	4388.717949	4407.179487	3713.333333	4382.564103	4609.230769	4628.717949	4522.564103	4021.538462	4104.615385	4520.000000	4438.461538	4264.615385	3953.846154	1736.000000	1679.000000	82.266000	0.000000	0.000000	0.000000	0.000000	1	1	0	0	0	0	0	0	0	0	0	0	0	0	0	0	0	0	0	1	0.000	0.000
27.000000	4354.358974	4388.205128	4409.230769	3712.307692	4382.051282	4610.769231	4632.307692	4523.076923	4022.051282	4104.615385	4517.435897	4436.923077	4265.641026	3950.256410	1736.000000	1677.000000	82.274000	0.000000	0.000000	0.000000	0.000000	1	1	0	0	0	0	0	0	0	0	0	0	0	0	0	0	0	0	0	1	0.000	0.000
28.000000	4356.923077	4385.641026	4408.205128	3712.307692	4383.076923	4610.769231	4632.820513	4524.102564	4021.538462	4104.615385	4517.435897	4435.897436	4265.641026	3949.743590	1735.000000	1679.000000	82.282000	0.000000	0.000000	0.000000	0.000000	1	1	0	0	0	0	0	0	0	0	0	0	0	0	0	0	0	0	0	1	0.000	0.000
29.000000	4354.358974	4386.153846	4407.179487	3712.820513	4384.615385	4611.282051	4630.256410	4523.589744	4022.564103	4104.615385	4520.512821	4437.948718	4265.128205	3952.820513	1737.000000	1678.000000	82.295000	0.000000	0.000000	0.000000	0.000000	1	1	0	0	0	0	0	0	0	0	0	0	0	0	0	0	0	0	0	1	0.000	0.000
30.000000	4354.358974	4387.692308	4408.205128	3711.282051	4384.102564	4613.846154	4631.282051	4524.615385	4022.564103	4104.102564	4518.461538	4436.923077	4267.179487	3952.307692	1735.000000	1678.000000	82.297000	0.000000	0.000000	0.000000	0.000000	1	1	0	0	0	0	0	0	0	0	0	0	0	0	0	0	0	0	0	1	0.000	0.000
31.000000	4357.435897	4386.153846	4408.717949	3711.282051	4384.615385	4613.333333	4632.307692	4524.102564	4021.025641	4104.102564	4517.948718	4440.000000	4268.717949	3950.769231	1736.000000	1678.000000	82.306000	0.000000	0.000000	0.000000	0.000000	1	1	0	0	0	0	0	0	0	0	0	0	0	0	0	0	0	0	0	1	0.000	0.000
32.000000	4355.897436	4385.641026	4405.641026	3712.820513	4384.615385	4611.794872	4633.333333	4524.102564	4023.076923	4105.641026	4518.974359	4440.512821	4266.666667	3951.794872	1735.000000	1677.000000	82.313000	0.000000	0.000000	0.000000	0.000000	1	1	0	0	0	0	0	0	0	0	0	0	0	0	0	0	0	0	0	1	0.000	0.000
33.000000	4353.846154	4386.153846	4405.128205	3712.307692	4381.025641	4610.769231	4630.256410	4523.589744	4025.128205	4103.076923	4519.487179	4436.410256	4265.128205	3953.333333	1736.000000	1678.000000	82.327000	0.000000	0.000000	0.000000	0.000000	1	1	0	0	0	0	0	0	0	0	0	0	0	0	0	0	0	0	0	1	0.000	0.000
34.000000	4354.358974	4388.205128	4407.179487	3710.769231	4380.512821	4611.282051	4628.205128	4522.564103	4023.076923	4100.512821	4518.974359	4435.384615	4265.128205	3952.307692	1737.000000	1678.000000	82.328000	0.000000	0.000000	0.000000	0.000000	1	1	0	0	0	0	0	0	0	0	0	0	0	0	0	0	0	0	0	1	0.000	0.000
35.000000	4353.846154	4389.743590	4409.230769	3710.769231	4382.051282	4610.256410	4630.256410	4522.564103	4021.538462	4102.051282	4520.000000	4440.512821	4265.641026	3952.307692	1736.000000	1678.000000	82.337000	0.000000	0.000000	0.000000	0.000000	1	1	0	0	0	0	0	0	0	0	0	0	0	0	0	0	0	0	0	1	0.000	0.000
36.000000	4356.410256	4389.230769	4407.692308	3710.256410	4381.538462	4610.769231	4631.794872	4522.564103	4022.051282	4104.102564	4520.512821	4441.025641	4266.153846	3952.307692	1737.000000	1678.000000	82.345000	0.000000	0.000000	0.000000	0.000000	1	1	0	0	0	0	0	0	0	0	0	0	0	0	0	0	0	0	0	1	0.000	0.000
37.000000	4357.948718	4388.205128	4407.179487	3711.794872	4382.051282	4610.769231	4631.282051	4523.076923	4019.487179	4102.564103	4519.487179	4439.487179	4265.128205	3952.307692	1736.000000	1678.000000	82.359000	0.000000	0.000000	0.000000	0.000000	1	1	0	0	0	0	0	0	0	0	0	0	0	0	0	0	0	0	0	1	0.000	0.000
38.000000	4356.410256	4387.692308	4409.743590	3714.358974	4383.589744	4608.717949	4631.794872	4523.589744	4017.435897	4104.102564	4520.000000	4441.538462	4265.641026	3952.820513	1736.000000	1678.000000	82.360000	0.000000	0.000000	0.000000	0.000000	1	1	0	0	0	0	0	0	0	0	0	0	0	0	0	0	0	0	0	1	0.000	0.000
39.000000	4354.871795	4386.666667	4409.230769	3713.846154	4383.589744	4608.717949	4630.256410	4525.128205	4020.512821	4105.128205	4517.948718	4442.051282	4267.692308	3952.307692	1735.000000	1678.000000	82.369000	0.000000	0.000000	0.000000	0.000000	1	1	0	0	0	0	0	0	0	0	0	0	0	0	0	0	0	0	0	1	0.000	0.000
40.000000	4354.871795	4386.666667	4407.692308	3712.307692	4383.076923	4610.769231	4626.153846	4524.615385	4022.051282	4101.538462	4516.923077	4441.025641	4266.666667	3952.307692	1736.000000	1678.000000	82.376000	0.000000	0.000000	0.000000	0.000000	1	1	0	0	0	0	0	0	0	0	0	0	0	0	0	0	0	0	0	1	0.000	0.000
41.000000	4355.384615	4389.743590	4409.743590	3712.307692	4383.589744	4610.769231	4627.692308	4523.076923	4021.025641	4102.051282	4516.923077	4440.000000	4265.128205	3952.820513	1735.000000	1677.000000	82.388000	0.000000	0.000000	0.000000	0.000000	1	1	0	0	0	0	0	0	0	0	0	0	0	0	0	0	0	0	0	1	0.000	0.000
42.000000	4354.358974	4389.743590	4409.743590	3711.282051	4384.102564	4610.256410	4631.282051	4521.538462	4022.051282	4104.615385	4518.461538	4439.487179	4266.153846	3952.820513	1736.000000	1678.000000	82.391000	0.000000	0.000000	0.000000	0.000000	1	1	0	0	0	0	0	0	0	0	0	0	0	0	0	0	0	0	0	1	0.000	0.000
43.000000	4354.358974	4388.717949	4405.641026	3709.743590	4383.076923	4613.333333	4630.256410	4522.051282	4024.102564	4102.564103	4519.487179	4440.000000	4267.179487	3953.333333	1736.000000	1677.000000	82.399000	0.000000	0.000000	0.000000	0.000000	1	1	0	0	0	0	0	0	0	0	0	0	0	0	0	0	0	0	0	1	0.000	0.000
44.000000	4354.358974	4388.717949	4406.666667	3711.282051	4381.538462	4613.333333	4627.692308	4521.025641	4024.102564	4102.051282	4517.435897	4445.128205	4265.128205	3951.282051	1735.000000	1678.000000	82.407000	0.000000	0.000000	0.000000	0.000000	1	1	0	0	0	0	0	0	0	0	0	0	0	0	0	0	0	0	0	1	0.000	0.000
45.000000	4354.871795	4389.230769	4407.179487	3713.846154	4383.076923	4612.307692	4628.205128	4519.487179	4023.076923	4104.102564	4516.410256	4441.538462	4265.128205	3949.230769	1737.000000	1677.000000	82.420000	0.000000	0.000000	0.000000	0.000000	1	1	0	0	0	0	0	0	0	0	0	0	0	0	0	0	0	0	0	1	0.000	0.000
46.000000	4354.871795	4389.230769	4405.128205	3711.794872	4384.615385	4611.794872	4628.205128	4521.025641	4023.589744	4104.102564	4520.000000	4436.410256	4265.641026	3951.282051	1736.000000	1678.000000	82.422000	0.000000	0.000000	0.000000	0.000000	1	1	0	0	0	0	0	0	0	0	0	0	0	0	0	0	0	0	0	1	0.000	0.000
47.000000	4355.897436	4390.769231	4405.128205	3709.743590	4383.589744	4610.769231	4630.256410	4524.615385	4023.589744	4102.564103	4520.000000	4436.410256	4265.641026	3952.307692	1736.000000	1678.000000	82.430000	0.000000	0.000000	0.000000	0.000000	1	1	0	0	0	0	0	0	0	0	0	0	0	0	0	0	0	0	0	1	0.000	0.000
48.000000	4355.897436	4388.717949	4407.692308	3711.794872	4382.051282	4610.256410	4631.282051	4523.076923	4020.512821	4103.076923	4517.435897	4441.538462	4265.641026	3952.307692	1735.000000	1678.000000	82.438000	0.000000	0.000000	0.000000	0.000000	1	1	0	0	0	0	0	0	0	0	0	0	0	0	0	0	0	0	0	1	0.000	0.000
49.000000	4353.846154	4387.179487	4408.205128	3711.794872	4380.512821	4612.307692	4631.794872	4522.564103	4020.000000	4103.076923	4517.435897	4441.538462	4265.128205	3951.282051	1737.000000	1678.000000	82.452000	0.000000	0.000000	0.000000	0.000000	1	1	0	0	0	0	0	0	0	0	0	0	0	0	0	0	0	0	0	1	0.000	0.000
50.000000	4353.846154	4389.743590	4407.692308	3710.769231	4380.512821	4613.333333	4630.256410	4523.076923	4023.076923	4102.564103	4518.461538	4440.512821	4265.641026	3951.282051	1736.000000	1678.000000	82.454000	0.000000	0.000000	0.000000	0.000000	1	1	0	0	0	0	0	0	0	0	0	0	0	0	0	0	0	0	0	1	0.000	0.000
51.000000	4358.461538	4390.256410	4407.179487	3712.820513	4383.589744	4611.794872	4631.282051	4523.076923	4023.589744	4103.076923	4517.948718	4438.461538	4265.128205	3952.307692	1736.000000	1677.000000	82.462000	0.000000	0.000000	0.000000	0.000000	1	1	0	0	0	0	0	0	0	0	0	0	0	0	0	0	0	0	0	1	0.000	0.000
52.000000	4358.461538	4386.153846	4407.692308	3713.333333	4383.589744	4611.794872	4633.846154	4523.589744	4019.487179	4103.076923	4520.512821	4438.461538	4264.102564	3953.333333	1736.000000	1678.000000	82.469000	0.000000	0.000000	0.000000	0.000000	1	1	0	0	0	0	0	0	0	0	0	0	0	0	0	0	0	0	0	1	0.000	0.000
53.000000	4354.871795	4385.641026	4411.282051	3712.307692	4382.051282	4613.846154	4632.820513	4523.076923	4018.461538	4103.076923	4520.512821	4438.974359	4265.128205	3951.794872	1736.000000	1678.000000	82.482000	0.000000	0.000000	0.000000	0.000000	1	1	0	0	0	0	0	0	0	0	0	0	0	0	0	0	0	0	0	1	0.000	0.000
54.000000	4353.333333	4386.153846	4410.256410	3713.333333	4382.564103	4614.871795	4628.717949	4521.538462	4022.051282	4103.076923	4516.923077	4440.512821	4266.153846	3950.769231	1736.000000	1679.000000	82.485000	0.000000	0.000000	0.000000	0.000000	1	1	0	0	0	0	0	0	0	0	0	0	0	0	0	0	0	0	0	1	0.000	0.000
55.000000	4357.435897	4385.128205	4408.205128	3712.307692	4383.076923	4613.846154	4628.717949	4521.538462	4023.076923	4103.076923	4517.948718	4440.512821	4265.128205	3951.282051	1737.000000	1678.000000	82.493000	0.000000	0.000000	0.000000	0.000000	1	1	0	0	0	0	0	0	0	0	0	0	0	0	0	0	0	0	0	1	0.000	0.000
56.000000	4358.461538	4385.641026	4410.256410	3709.743590	4382.564103	4612.820513	4631.794872	4522.564103	4021.025641	4103.076923	4520.000000	4437.948718	4264.615385	3951.794872	1736.000000	1679.000000	82.500000	0.000000	0.000000	0.000000	0.000000	1	1	0	0	0	0	0	0	0	0	0	0	0	0	0	0	0	0	0	1	0.000	0.000
57.000000	4354.358974	4387.692308	4410.769231	3710.256410	4382.051282	4611.282051	4632.307692	4522.564103	4021.538462	4103.076923	4519.487179	4440.000000	4265.128205	3952.307692	1737.000000	1678.000000	82.513000	0.000000	0.000000	0.000000	0.000000	1	1	0	0	0	0	0	0	0	0	0	0	0	0	0	0	0	0	0	1	0.000	0.000
58.000000	4353.846154	4387.692308	4407.692308	3711.282051	4383.076923	4609.743590	4632.820513	4524.615385	4025.128205	4103.076923	4518.974359	4438.974359	4265.128205	3951.282051	1736.000000	1678.000000	82.517000	0.000000	0.000000	0.000000	0.000000	1	1	0	0	0	0	0	0	0	0	0	0	0	0	0	0	0	0	0	1	0.000	0.000
59.000000	4354.871795	4386.153846	4406.666667	3712.307692	4383.076923	4611.282051	4630.769231	4524.615385	4023.589744	4103.076923	4517.948718	4436.410256	4265.128205	3949.743590	1738.000000	1677.000000	82.524000	0.000000	0.000000	0.000000	0.000000	1	1	0	0	0	0	0	0	0	0	0	0	0	0	0	0	0	0	0	1	0.000	0.000
60.000000	4356.923077	4389.230769	4406.153846	3711.794872	4383.076923	4612.820513	4627.692308	4523.076923	4021.538462	4103.076923	4517.948718	4435.384615	4266.153846	3951.794872	1735.000000	1677.000000	82.532000	0.000000	0.000000	0.000000	0.000000	1	1	0	0	0	0	0	0	0	0	0	0	0	0	0	0	0	0	0	1	0.000	0.000
61.000000	4356.923077	4390.256410	4407.179487	3712.820513	4382.564103	4610.769231	4628.205128	4521.025641	4022.564103	4103.076923	4520.000000	4436.923077	4265.128205	3954.358974	1736.000000	1678.000000	82.545000	0.000000	0.000000	0.000000	0.000000	1	1	0	0	0	0	0	0	0	0	0	0	0	0	0	0	0	0	0	1	0.000	0.000
62.000000	4355.897436	4387.179487	4409.230769	3713.333333	4383.589744	4611.794872	4631.282051	4522.564103	4020.000000	4103.076923	4519.487179	4436.410256	4264.102564	3953.333333	1736.000000	1677.000000	82.548000	0.000000	0.000000	0.000000	0.000000	1	1	0	0	0	0	0	0	0	0	0	0	0	0	0	0	0	0	0	1	0.000	0.000
63.000000	4354.871795	4385.128205	4407.692308	3711.282051	4383.076923	4612.820513	4629.230769	4524.615385	4016.923077	4103.076923	4518.461538	4438.974359	4265.128205	3951.794872	1735.000000	1678.000000	82.555000	0.000000	0.000000	0.000000	0.000000	1	1	0	0	0	0	0	0	0	0	0	0	0	0	0	0	0	0	0	1	0.000	0.000
64.000000	4355.384615	4388.717949	4403.589744	3710.769231	4382.564103	4611.282051	4629.230769	4524.102564	4022.051282	4103.076923	4518.974359	4440.000000	4266.153846	3950.769231	1736.000000	1678.000000	82.563000	0.000000	0.000000	0.000000	0.000000	1	1	0	0	0	0	0	0	0	0	0	0	0	0	0	0	0	0	0	1	0.000	0.000
65.000000	4355.897436	4388.205128	4405.128205	3712.307692	4383.589744	4610.769231	4632.307692	4522.564103	4025.128205	4103.076923	4519.487179	4438.974359	4265.641026	3951.794872	1735.000000	1679.000000	82.574000	0.000000	0.000000	0.000000	0.000000	1	1	0	0	0	0	0	0	0	0	0	0	0	0	0	0	0	0	0	1	0.000	0.000
66.000000	4356.410256	4384.615385	4408.205128	3712.820513	4383.076923	4612.820513	4631.794872	4523.076923	4022.564103	4103.076923	4518.461538	4438.974359	4265.128205	3951.794872	1736.000000	1678.000000	82.579000	0.000000	0.000000	0.000000	0.000000	1	1	0	0	0	0	0	0	0	0	0	0	0	0	0	0	0	0	0	1	0.000	0.000
67.000000	4355.897436	4385.128205	4407.692308	3711.282051	4382.051282	4612.820513	4627.692308	4523.589744	4021.025641	4103.076923	4518.461538	4440.000000	4265.641026	3951.282051	1735.000000	1678.000000	82.586000	0.000000	0.000000	0.000000	0.000000	1	1	0	0	0	0	0	0	0	0	0	0	0	0	0	0	0	0	0	1	0.000	0.000
68.000000	4354.871795	4386.666667	4407.179487	3711.282051	4383.589744	4610.769231	4629.230769	4523.076923	4022.051282	4103.076923	4517.948718	4438.461538	4266.153846	3950.256410	1736.000000	1678.000000	82.594000	0.000000	0.000000	0.000000	0.000000	1	1	0	0	0	0	0	0	0	0	0	0	0	0	0	0	0	0	0	1	0.000	0.000
69.000000	4356.923077	4386.666667	4407.179487	3711.794872	4383.589744	4610.256410	4630.769231	4523.076923	4023.076923	4103.076923	4517.435897	4437.948718	4265.128205	3950.769231	1735.000000	1678.000000	82.608000	0.000000	0.000000	0.000000	0.000000	1	1	0	0	0	0	0	0	0	0	0	0	0	0	0	0	0	0	0	1	0.000	0.000
70.000000	4356.923077	4388.205128	4406.153846	3711.794872	4383.076923	4611.794872	4629.743590	4523.076923	4022.564103	4103.076923	4518.461538	4437.435897	4263.589744	3951.794872	1736.000000	1678.000000	82.612000	0.000000	0.000000	0.000000	0.000000	1	1	0	0	0	0	0	0	0	0	0	0	0	0	0	0	0	0	0	1	0.000	0.000
71.000000	4354.871795	4387.692308	4405.128205	3711.282051	4383.589744	4611.794872	4629.743590	4523.076923	4021.025641	4103.076923	4516.923077	4438.461538	4265.128205	3951.282051	1736.000000	1678.000000	82.618000	0.000000	0.000000	0.000000	0.000000	1	1	0	0	0	0	0	0	0	0	0	0	0	0	0	0	0	0	0	1	0.000	0.000
72.000000	4355.897436	4386.153846	4407.692308	3710.256410	4383.589744	4608.205128	4629.743590	4521.538462	4020.512821	4103.076923	4517.435897	4440.512821	4266.153846	3950.769231	1737.000000	1678.000000	82.626000	0.000000	0.000000	0.000000	0.000000	1	1	0	0	0	0	0	0	0	0	0	0	0	0	0	0	0	0	0	1	0.000	0.000
73.000000	4357.435897	4387.692308	4408.717949	3710.769231	4384.102564	4609.743590	4629.743590	4522.564103	4022.564103	4103.076923	4520.512821	4438.974359	4265.128205	3950.769231	1736.000000	1677.000000	82.639000	0.000000	0.000000	0.000000	0.000000	1	1	0	0	0	0	0	0	0	0	0	0	0	0	0	0	0	0	0	1	0.000	0.000
74.000000	4354.871795	4389.743590	4407.179487	3712.307692	4385.128205	4612.307692	4630.256410	4522.564103	4022.051282	4103.076923	4521.025641	4438.461538	4265.128205	3951.282051	1735.000000	1680.000000	82.642000	0.000000	0.000000	0.000000	0.000000	1	1	0	0	0	0	0	0	0	0	0	0	0	0	0	0	0	0	0	1	0.000	0.000
75.000000	4353.846154	4388.205128	4406.153846	3711.282051	4383.076923	4611.282051	4632.820513	4521.025641	4022.051282	4103.076923	4518.461538	4439.487179	4265.641026	3950.769231	1737.000000	1677.000000	82.649000	0.000000	0.000000	0.000000	0.000000	1	1	0	0	0	0	0	0	0	0	0	0	0	0	0	0	0	0	0	1	0.000	0.000
76.000000	4355.897436	4386.153846	4408.205128	3709.743590	4381.538462	4609.743590	4631.794872	4522.051282	4022.564103	4103.076923	4516.410256	4440.512821	4266.153846	3952.307692	1735.000000	1678.000000	82.657000	0.000000	0.000000	0.000000	0.000000	1	1	0	0	0	0	0	0	0	0	0	0	0	0	0	0	0	0	0	1	0.000	0.000
77.000000	4354.871795	4386.666667	4407.179487	3711.282051	4383.589744	4612.307692	4630.769231	4525.641026	4023.076923	4103.076923	4516.923077	4437.948718	4268.205128	3953.333333	1736.000000	1678.000000	82.670000	0.000000	0.000000	0.000000	0.000000	1	1	0	0	0	0	0	0	0	0	0	0	0	0	0	0	0	0	0	1	0.000	0.000
78.000000	4354.358974	4386.153846	4407.179487	3711.282051	4382.564103	4612.307692	4631.282051	4523.589744	4024.102564	4103.076923	4518.974359	4439.487179	4268.205128	3952.820513	1736.000000	1677.000000	82.673000	0.000000	0.000000	0.000000	0.000000	1	1	0	0	0	0	0	0	0	0	0	0	0	0	0	0	0	0	0	1	0.000	0.000
79.000000	4354.871795	4384.102564	4407.692308	3709.230769	4382.051282	4610.769231	4632.307692	4520.000000	4024.615385	4103.076923	4517.435897	4438.974359	4265.641026	3953.333333	1737.000000	1678.000000	82.680000	0.000000	0.000000	0.000000	0.000000	1	1	0	0	0	0	0	0	0	0	0	0	0	0	0	0	0	0	0	1	0.000	0.000
80.000000	4354.358974	4384.102564	4406.666667	3708.717949	4385.128205	4610.769231	4630.769231	4522.051282	4022.051282	4103.076923	4515.384615	4438.974359	4265.641026	3954.358974	1736.000000	1678.000000	82.688000	0.000000	0.000000	0.000000	0.000000	1	1	0	0	0	0	0	0	0	0	0	0	0	0	0	0	0	0	0	1	0.000	0.000
81.000000	4355.384615	4386.666667	4406.153846	3712.307692	4385.641026	4611.794872	4629.743590	4525.128205	4020.512821	4103.076923	4517.435897	4440.000000	4266.153846	3952.307692	1736.000000	1678.000000	82.700000	0.000000	0.000000	0.000000	0.000000	1	1	0	0	0	0	0	0	0	0	0	0	0	0	0	0	0	0	0	1	0.000	0.000
82.000000	4357.435897	4387.179487	4409.230769	3713.333333	4382.051282	4614.358974	4628.205128	4523.589744	4022.564103	4103.076923	4520.000000	4438.974359	4265.641026	3950.769231	1737.000000	1678.000000	82.704000	0.000000	0.000000	0.000000	0.000000	1	1	0	0	0	0	0	0	0	0	0	0	0	0	0	0	0	0	0	1	0.000	0.000
83.000000	4358.461538	4389.230769	4407.692308	3710.769231	4381.538462	4614.871795	4627.692308	4522.564103	4025.128205	4103.076923	4517.435897	4435.384615	4266.153846	3950.769231	1736.000000	1679.000000	82.712000	0.000000	0.000000	0.000000	0.000000	1	1	0	0	0	0	0	0	0	0	0	0	0	0	0	0	0	0	0	1	0.000	0.000
84.000000	4357.435897	4388.717949	4405.128205	3709.230769	4383.589744	4611.282051	4631.282051	4523.589744	4022.564103	4103.076923	4517.948718	4437.435897	4266.153846	3950.769231	1736.000000	1677.000000	82.719000	0.000000	0.000000	0.000000	0.000000	1	1	0	0	0	0	0	0	0	0	0	0	0	0	0	0	0	0	0	1	0.000	0.000
85.000000	4355.384615	4385.641026	4408.205128	3711.282051	4384.615385	4609.230769	4633.333333	4523.589744	4022.051282	4103.076923	4521.025641	4441.025641	4265.128205	3951.282051	1735.000000	1679.000000	82.731000	0.000000	0.000000	0.000000	0.000000	1	1	0	0	0	0	0	0	0	0	0	0	0	0	0	0	0	0	0	1	0.000	0.000
86.000000	4353.846154	4386.666667	4408.205128	3711.282051	4383.076923	4610.769231	4630.769231	4522.051282	4024.102564	4103.076923	4521.025641	4438.974359	4266.666667	3952.820513	1736.000000	1678.000000	82.735000	0.000000	0.000000	0.000000	0.000000	1	1	0	0	0	0	0	0	0	0	0	0	0	0	0	0	0	0	0	1	0.000	0.000
87.000000	4355.897436	4389.743590	4405.641026	3711.794872	4382.051282	4611.794872	4630.256410	4521.538462	4023.076923	4103.076923	4520.000000	4437.948718	4267.692308	3951.794872	1735.000000	1678.000000	82.743000	0.000000	0.000000	0.000000	0.000000	1	1	0	0	0	0	0	0	0	0	0	0	0	0	0	0	0	0	0	1	0.000	0.000
88.000000	4356.410256	4388.205128	4406.153846	3713.846154	4384.102564	4611.282051	4631.282051	4522.564103	4021.538462	4103.076923	4518.974359	4440.000000	4265.641026	3950.769231	1737.000000	1678.000000	82.751000	0.000000	0.000000	0.000000	0.000000	1	1	0	0	0	0	0	0	0	0	0	0	0	0	0	0	0	0	0	1	0.000	0.000
89.000000	4355.384615	4386.153846	4407.692308	3712.307692	4385.128205	4609.230769	4629.230769	4523.076923	4023.076923	4103.076923	4520.512821	4441.025641	4264.615385	3952.307692	1736.000000	1677.000000	82.764000	0.000000	0.000000	0.000000	0.000000	1	1	0	0	0	0	0	0	0	0	0	0	0	0	0	0	0	0	0	1	0.000	0.000
90.000000	4357.435897	4388.717949	4407.692308	3709.743590	4385.128205	4607.692308	4630.769231	4523.076923	4025.128205	4103.076923	4519.487179	4437.948718	4266.666667	3951.794872	1736.000000	1678.000000	82.767000	0.000000	0.000000	0.000000	0.000000	1	1	0	0	0	0	0	0	0	0	0	0	0	0	0	0	0	0	0	1	0.000	0.000
91.000000	4358.974359	4390.769231	4407.179487	3711.282051	4384.615385	4610.769231	4631.282051	4522.564103	4023.589744	4103.076923	4516.410256	4437.948718	4268.205128	3950.256410	1736.000000	1678.000000	82.774000	0.000000	0.000000	0.000000	0.000000	1	1	0	0	0	0	0	0	0	0	0	0	0	0	0	0	0	0	0	1	0.000	0.000
92.000000	4358.974359	4391.282051	4406.153846	3712.307692	4383.589744	4613.846154	4628.205128	4523.589744	4024.615385	4103.076923	4515.384615	4436.923077	4266.153846	3952.307692	1736.000000	1678.000000	82.782000	0.000000	0.000000	0.000000	0.000000	1	1	0	0	0	0	0	0	0	0	0	0	0	0	0	0	0	0	0	1	0.000	0.000
93.000000	4356.410256	4389.230769	4406.666667	3711.282051	4383.076923	4611.282051	4628.205128	4523.589744	4023.589744	4103.076923	4517.948718	4438.461538	4264.615385	3952.307692	1736.000000	1678.000000	82.796000	0.000000	0.000000	0.000000	0.000000	1	1	0	0	0	0	0	0	0	0	0	0	0	0	0	0	0	0	0	1	0.000	0.000
94.000000	4357.435897	4387.179487	4407.179487	3710.769231	4382.564103	4608.717949	4630.256410	4524.102564	4021.025641	4103.076923	4519.487179	4438.461538	4266.666667	3948.717949	1735.000000	1679.000000	82.798000	0.000000	0.000000	0.000000	0.000000	1	1	0	0	0	0	0	0	0	0	0	0	0	0	0	0	0	0	0	1	0.000	0.000
95.000000	4357.435897	4386.666667	4406.666667	3711.794872	4380.000000	4610.256410	4627.692308	4523.589744	4020.512821	4103.076923	4521.025641	4440.512821	4267.692308	3949.230769	1736.000000	1677.000000	82.805000	0.000000	0.000000	0.000000	0.000000	1	1	0	0	0	0	0	0	0	0	0	0	0	0	0	0	0	0	0	1	0.000	0.000
96.000000	4356.410256	4388.205128	4405.128205	3712.820513	4381.538462	4613.846154	4629.230769	4521.538462	4023.589744	4103.076923	4521.025641	4439.487179	4267.179487	3953.333333	1736.000000	1678.000000	82.813000	0.000000	0.000000	0.000000	0.000000	1	1	0	0	0	0	0	0	0	0	0	0	0	0	0	0	0	0	0	1	0.000	0.000
97.000000	4356.410256	4388.205128	4405.641026	3711.794872	4384.102564	4610.769231	4630.769231	4520.512821	4024.615385	4103.076923	4518.974359	4438.974359	4265.641026	3952.820513	1736.000000	1677.000000	82.825000	0.000000	0.000000	0.000000	0.000000	1	1	0	0	0	0	0	0	0	0	0	0	0	0	0	0	0	0	0	1	0.000	0.000
98.000000	4356.410256	4388.717949	4407.179487	3712.307692	4383.076923	4608.717949	4629.230769	4523.076923	4022.564103	4103.076923	4518.974359	4438.974359	4265.641026	3950.256410	1735.000000	1678.000000	82.829000	0.000000	0.000000	0.000000	0.000000	1	1	0	0	0	0	0	0	0	0	0	0	0	0	0	0	0	0	0	1	0.000	0.000
99.000000	4354.358974	4387.179487	4408.205128	3712.820513	4383.076923	4609.743590	4626.666667	4522.564103	4023.589744	4103.076923	4520.000000	4440.512821	4265.641026	3951.282051	1737.000000	1678.000000	82.837000	0.000000	0.000000	0.000000	0.000000	1	1	0	0	0	0	0	0	0	0	0	0	0	0	0	0	0	0	0	1	0.000	0.000
100.000000	4354.358974	4384.615385	4408.717949	3711.282051	4384.615385	4608.717949	4629.230769	4521.538462	4026.666667	4103.076923	4517.948718	4442.564103	4265.641026	3952.820513	1735.000000	1678.000000	82.844000	0.000000	0.000000	0.000000	0.000000	1	1	0	0	0	0	0	0	0	0	0	0	0	0	0	0	0	0	0	1	0.000	0.000
101.000000	4356.410256	4386.666667	4408.717949	3711.282051	4382.564103	4606.666667	4631.282051	4522.051282	4025.128205	4103.076923	4518.974359	4442.564103	4265.128205	3952.307692	1736.000000	1679.000000	82.858000	0.000000	0.000000	0.000000	0.000000	1	1	0	0	0	0	0	0	0	0	0	0	0	0	0	0	0	0	0	1	0.000	0.000
102.000000	4354.871795	4390.256410	4407.179487	3713.333333	4383.076923	4609.230769	4631.282051	4521.025641	4021.538462	4103.076923	4522.051282	4441.538462	4264.615385	3949.230769	1736.000000	1678.000000	82.860000	0.000000	0.000000	0.000000	0.000000	1	1	0	0	0	0	0	0	0	0	0	0	0	0	0	0	0	0	0	1	0.000	0.000
103.000000	4355.384615	4387.179487	4407.179487	3711.282051	4384.102564	4611.794872	4629.230769	4520.512821	4022.564103	4103.076923	4519.487179	4440.512821	4265.641026	3949.743590	1736.000000	1679.000000	82.868000	0.000000	0.000000	0.000000	0.000000	1	1	0	0	0	0	0	0	0	0	0	0	0	0	0	0	0	0	0	1	0.000	0.000
104.000000	4357.435897	4384.102564	4409.743590	3711.282051	4383.076923	4611.282051	4626.666667	4522.564103	4024.615385	4103.076923	4515.897436	4441.538462	4266.666667	3953.846154	1736.000000	1678.000000	82.876000	0.000000	0.000000	0.000000	0.000000	1	1	0	0	0	0	0	0	0	0	0	0	0	0	0	0	0	0	0	1	0.000	0.000
105.000000	4355.384615	4387.692308	4408.717949	3716.410256	4382.564103	4609.230769	4630.256410	4524.615385	4023.589744	4103.076923	4518.974359	4441.025641	4266.666667	3953.846154	1736.000000	1678.000000	82.890000	0.000000	0.000000	0.000000	0.000000	1	1	0	0	0	0	0	0	0	0	0	0	0	0	0	0	0	0	0	1	0.000	0.000
106.000000	4353.333333	4388.717949	4407.692308	3715.897436	4383.076923	4606.666667	4632.820513	4522.051282	4023.589744	4103.076923	4522.051282	4441.025641	4265.128205	3951.282051	1736.000000	1677.000000	82.890000	0.000000	0.000000	0.000000	0.000000	1	1	0	0	0	0	0	0	0	0	0	0	0	0	0	0	0	0	0	1	0.000	0.000
107.000000	4353.846154	4386.666667	4409.230769	3712.307692	4384.615385	4607.179487	4630.256410	4522.051282	4023.589744	4103.076923	4520.512821	4436.923077	4264.615385	3950.769231	1737.000000	1678.000000	82.899000	0.000000	0.000000	0.000000	0.000000	1	1	0	0	0	0	0	0	0	0	0	0	0	0	0	0	0	0	0	1	0.000	0.000
108.000000	4354.871795	4384.102564	4410.256410	3712.307692	4384.615385	4608.717949	4625.641026	4523.076923	4022.051282	4103.076923	4521.025641	4437.435897	4265.128205	3952.307692	1736.000000	1678.000000	82.907000	0.000000	0.000000	0.000000	0.000000	1	1	0	0	0	0	0	0	0	0	0	0	0	0	0	0	0	0	0	1	0.000	0.000
109.000000	4354.871795	4385.128205	4406.666667	3711.794872	4383.589744	4609.230769	4628.717949	4522.564103	4024.102564	4103.076923	4521.025641	4440.000000	4265.128205	3953.846154	1736.000000	1679.000000	82.921000	0.000000	0.000000	0.000000	0.000000	1	1	0	0	0	0	0	0	0	0	0	0	0	0	0	0	0	0	0	1	0.000	0.000
110.000000	4353.333333	4387.179487	4405.128205	3710.769231	4381.538462	4607.692308	4632.307692	4522.564103	4025.128205	4103.076923	4520.512821	4440.512821	4266.153846	3953.846154	1735.000000	1678.000000	82.923000	0.000000	0.000000	0.000000	0.000000	1	1	0	0	0	0	0	0	0	0	0	0	0	0	0	0	0	0	0	1	0.000	0.000
111.000000	4353.846154	4389.230769	4404.615385	3712.820513	4383.589744	4609.743590	4628.205128	4523.589744	4024.102564	4103.076923	4520.000000	4437.948718	4265.641026	3952.307692	1736.000000	1678.000000	82.931000	0.000000	0.000000	0.000000	0.000000	1	1	0	0	0	0	0	0	0	0	0	0	0	0	0	0	0	0	0	1	0.000	0.000
112.000000	4355.384615	4387.692308	4406.666667	3712.820513	4384.615385	4610.256410	4624.615385	4522.564103	4022.564103	4103.076923	4519.487179	4440.512821	4264.615385	3953.333333	1736.000000	1678.000000	82.938000	0.000000	0.000000	0.000000	0.000000	1	1	0	0	0	0	0	0	0	0	0	0	0	0	0	0	0	0	0	1	0.000	0.000
113.000000	4356.410256	4388.205128	4407.692308	3710.769231	4384.615385	4607.692308	4626.666667	4522.564103	4022.051282	4103.076923	4517.948718	4440.000000	4265.128205	3953.333333	1735.000000	1678.000000	82.952000	0.000000	0.000000	0.000000	0.000000	1	1	0	0	0	0	0	0	0	0	0	0	0	0	0	0	0	0	0	1	0.000	0.000
114.000000	4356.923077	4388.205128	4407.692308	3711.794872	4384.615385	4605.641026	4630.256410	4523.589744	4022.564103	4103.076923	4518.461538	4437.948718	4266.153846	3952.307692	1736.000000	1677.000000	82.954000	0.000000	0.000000	0.000000	0.000000	1	1	0	0	0	0	0	0	0	0	0	0	0	0	0	0	0	0	0	1	0.000	0.000
115.000000	4358.461538	4385.641026	4405.641026	3712.820513	4384.102564	4609.230769	4631.282051	4522.051282	4022.051282	4103.076923	4519.487179	4437.948718	4266.153846	3952.307692	1736.000000	1678.000000	82.962000	0.000000	0.000000	0.000000	0.000000	1	1	0	0	0	0	0	0	0	0	0	0	0	0	0	0	0	0	0	1	0.000	0.000
116.000000	4358.974359	4383.076923	4405.641026	3711.794872	4383.076923	4611.794872	4628.205128	4522.051282	4020.000000	4103.076923	4518.974359	4440.512821	4265.128205	3950.769231	1737.000000	1677.000000	82.970000	0.000000	0.000000	0.000000	0.000000	1	1	0	0	0	0	0	0	0	0	0	0	0	0	0	0	0	0	0	1	0.000	0.000
117.000000	4356.410256	4386.153846	4407.179487	3711.794872	4385.128205	4611.794872	4628.205128	4524.615385	4022.051282	4103.076923	4517.948718	4440.000000	4265.641026	3949.743590	1735.000000	1678.000000	82.982000	0.000000	0.000000	0.000000	0.000000	1	1	0	0	0	0	0	0	0	0	0	0	0	0	0	0	0	0	0	1	0.000	0.000
118.000000	4353.846154	4387.692308	4407.692308	3713.846154	4386.153846	4613.333333	4632.307692	4524.615385	4024.102564	4103.076923	4518.461538	4438.974359	4267.692308	3951.282051	1737.000000	1679.000000	82.986000	0.000000	0.000000	0.000000	0.000000	1	1	0	0	0	0	0	0	0	0	0	0	0	0	0	0	0	0	0	1	0.000	0.000
119.000000	4354.871795	4386.153846	4409.230769	3713.846154	4382.564103	4613.846154	4632.307692	4525.128205	4020.512821	4103.076923	4520.512821	4439.487179	4266.666667	3951.794872	1736.000000	1678.000000	82.993000	0.000000	0.000000	0.000000	0.000000	1	1	0	0	0	0	0	0	0	0	0	0	0	0	0	0	0	0	0	1	0.000	0.000
120.000000	4354.871795	4386.666667	4408.717949	3710.769231	4382.051282	4611.794872	4627.692308	4524.615385	4021.538462	4103.076923	4520.512821	4437.435897	4265.128205	3950.256410	1736.000000	1678.000000	83.002000	0.000000	0.000000	0.000000	0.000000	1	1	0	0	0	0	0	0	0	0	0	0	0	0	0	0	0	0	0	1	0.000	0.000
121.000000	4354.871795	4387.692308	4406.153846	3711.282051	4384.102564	4610.256410	4629.230769	4520.512821	4026.666667	4103.076923	4520.512821	4437.948718	4266.153846	3951.282051	1736.000000	1678.000000	83.015000	0.000000	0.000000	0.000000	0.000000	1	1	0	0	0	0	0	0	0	0	0	0	0	0	0	0	0	0	0	1	0.000	0.000
122.000000	4357.435897	4387.692308	4405.641026	3714.358974	4384.615385	4611.282051	4632.820513	4522.051282	4023.589744	4103.076923	4520.000000	4437.948718	4266.666667	3950.769231	1736.000000	1678.000000	83.017000	0.000000	0.000000	0.000000	0.000000	1	1	0	0	0	0	0	0	0	0	0	0	0	0	0	0	0	0	0	1	0.000	0.000
123.000000	4357.435897	4386.666667	4406.666667	3712.820513	4384.102564	4610.256410	4629.743590	4525.641026	4020.512821	4103.076923	4516.410256	4437.948718	4265.641026	3951.282051	1736.000000	1678.000000	83.025000	0.000000	0.000000	0.000000	0.000000	1	1	0	0	0	0	0	0	0	0	0	0	0	0	0	0	0	0	0	1	0.000	0.000
124.000000	4354.871795	4387.179487	4405.641026	3709.743590	4384.102564	4609.743590	4628.205128	4523.589744	4023.589744	4103.076923	4516.410256	4436.923077	4265.128205	3953.333333	1736.000000	1678.000000	83.033000	0.000000	0.000000	0.000000	0.000000	1	1	0	0	0	0	0	0	0	0	0	0	0	0	0	0	0	0	0	1	0.000	0.000
125.000000	4352.820513	4386.153846	4407.179487	3711.282051	4384.615385	4611.282051	4629.743590	4520.512821	4023.589744	4103.076923	4521.538462	4437.948718	4265.128205	3953.846154	1737.000000	1678.000000	83.045000	0.000000	0.000000	0.000000	0.000000	1	1	0	0	0	0	0	0	0	0	0	0	0	0	0	0	0	0	0	1	0.000	0.000
126.000000	4355.384615	4385.641026	4408.205128	3712.820513	4385.641026	4612.307692	4631.794872	4523.076923	4023.076923	4103.076923	4520.512821	4435.897436	4265.128205	3950.769231	1736.000000	1678.000000	83.048000	0.000000	0.000000	0.000000	0.000000	1	1	0	0	0	0	0	0	0	0	0	0	0	0	0	0	0	0	0	1	0.000	0.000
127.000000	4356.923077	4387.692308	4406.153846	3710.769231	4385.128205	4612.307692	4632.307692	4522.051282	4025.641026	4102.564103	4515.897436	4436.923077	4265.128205	3949.743590	1737.000000	1678.000000	83.056000	0.000000	0.000000	0.000000	0.000000	1	1	0	0	0	0	0	0	0	0	0	0	0	0	0	0	0	0	0	1	0.000	0.000
128.000000	4355.384615	4390.256410	4407.692308	3713.333333	4384.615385	4612.820513	4632.307692	4521.025641	4025.641026	4103.076923	4516.923077	4438.974359	4267.179487	3951.794872	1736.000000	1678.000000	83.063000	0.000000	0.000000	0.000000	0.000000	1	1	0	0	0	0	0	0	0	0	0	0	0	0	0	0	0	0	0	1	0.000	0.000
0.000000	4353.333333	4388.717949	4408.717949	3717.435897	4383.076923	4613.333333	4630.769231	4523.589744	4022.564103	4102.564103	4517.948718	4437.435897	4268.717949	3952.820513	1736.000000	1679.000000	83.075000	0.000000	0.000000	0.000000	0.000000	1	1	0	0	0	0	0	0	0	0	0	0	0	0	0	0	0	0	0	1	0.000	0.000
1.000000	4357.435897	4392.307692	4401.538462	3714.871795	4384.615385	4615.897436	4634.871795	4525.641026	4019.487179	4099.487179	4514.871795	4431.282051	4267.179487	3951.794872	1735.000000	1677.000000	83.079000	0.000000	0.000000	0.000000	0.000000	1	1	0	0	0	0	0	0	0	0	0	0	0	0	0	0	0	0	0	1	0.000	0.000
2.000000	4360.000000	4395.384615	4398.461538	3710.256410	4386.666667	4617.948718	4636.923077	4521.538462	4019.487179	4097.435897	4515.384615	4430.769231	4264.615385	3952.307692	1736.000000	1679.000000	83.087000	0.000000	0.000000	0.000000	0.000000	1	1	0	0	0	0	0	0	0	0	0	0	0	0	0	0	0	0	0	1	0.000	0.000
3.000000	4353.333333	4389.743590	4403.589744	3710.769231	4386.153846	4613.846154	4630.256410	4520.000000	4024.615385	4099.487179	4519.487179	4436.410256	4265.128205	3952.820513	1737.000000	1677.000000	83.095000	0.000000	0.000000	0.000000	0.000000	1	1	0	0	0	0	0	0	0	0	0	0	0	0	0	0	0	0	0	1	0.000	0.000
4.000000	4351.282051	4384.615385	4408.205128	3711.282051	4383.589744	4609.230769	4625.128205	4523.589744	4025.641026	4102.564103	4521.025641	4441.538462	4266.153846	3953.333333	1735.000000	1678.000000	83.107000	0.000000	0.000000	0.000000	0.000000	1	1	0	0	0	0	0	0	0	0	0	0	0	0	0	0	0	0	0	1	0.000	0.000
5.000000	4355.897436	4386.153846	4408.717949	3711.794872	4382.564103	4610.769231	4630.256410	4524.102564	4020.512821	4103.589744	4518.461538	4442.051282	4266.153846	3951.282051	1736.000000	1678.000000	83.111000	0.000000	0.000000	0.000000	0.000000	1	1	0	0	0	0	0	0	0	0	0	0	0	0	0	0	0	0	0	1	0.000	0.000
6.000000	4356.923077	4386.153846	4408.717949	3712.307692	4380.512821	4611.794872	4632.820513	4521.538462	4020.512821	4104.102564	4519.487179	4440.512821	4265.641026	3949.743590	1736.000000	1678.000000	83.118000	0.000000	0.000000	0.000000	0.000000	1	1	0	0	0	0	0	0	0	0	0	0	0	0	0	0	0	0	0	1	0.000	0.000
7.000000	4354.358974	4385.641026	4409.230769	3711.282051	4380.000000	4608.717949	4629.743590	4522.564103	4024.102564	4104.102564	4522.564103	4442.051282	4266.153846	3951.282051	1736.000000	1677.000000	83.127000	0.000000	0.000000	0.000000	0.000000	1	1	0	0	0	0	0	0	0	0	0	0	0	0	0	0	0	0	0	1	0.000	0.000
8.000000	4354.871795	4387.692308	4408.205128	3712.820513	4383.589744	4608.717949	4628.717949	4524.615385	4024.615385	4103.076923	4520.512821	4441.538462	4267.692308	3951.282051	1736.000000	1678.000000	83.141000	0.000000	0.000000	0.000000	0.000000	1	1	0	0	0	0	0	0	0	0	0	0	0	0	0	0	0	0	0	1	0.000	0.000
9.000000	4355.384615	4386.153846	4409.743590	3714.358974	4384.102564	4609.230769	4629.230769	4523.076923	4023.076923	4102.564103	4519.487179	4441.538462	4267.179487	3950.256410	1737.000000	1678.000000	83.142000	0.000000	0.000000	0.000000	0.000000	1	1	0	0	0	0	0	0	0	0	0	0	0	0	0	0	0	0	0	1	0.000	0.000
10.000000	4355.384615	4387.179487	4409.743590	3711.794872	4383.076923	4610.256410	4629.743590	4522.051282	4024.615385	4103.076923	4521.025641	4440.512821	4264.102564	3951.282051	1736.000000	1678.000000	83.149000	0.000000	0.000000	0.000000	0.000000	1	1	0	0	0	0	0	0	0	0	0	0	0	0	0	0	0	0	0	1	0.000	0.000
11.000000	4354.358974	4387.692308	4407.692308	3711.282051	4382.564103	4612.307692	4628.717949	4522.564103	4024.102564	4103.076923	4522.051282	4440.000000	4264.102564	3952.307692	1736.000000	1679.000000	83.157000	0.000000	0.000000	0.000000	0.000000	1	1	0	0	0	0	0	0	0	0	0	0	0	0	0	0	0	0	0	1	0.000	0.000
12.000000	4351.794872	4387.179487	4406.666667	3713.333333	4381.538462	4612.820513	4630.256410	4523.589744	4023.076923	4102.564103	4518.974359	4438.974359	4266.153846	3950.256410	1736.000000	1677.000000	83.170000	0.000000	0.000000	0.000000	0.000000	1	1	0	0	0	0	0	0	0	0	0	0	0	0	0	0	0	0	0	1	0.000	0.000
13.000000	4351.794872	4387.179487	4408.205128	3711.794872	4382.051282	4608.205128	4629.230769	4522.051282	4024.102564	4103.076923	4516.923077	4441.025641	4265.641026	3950.769231	1736.000000	1679.000000	83.173000	0.000000	0.000000	0.000000	0.000000	1	1	0	0	0	0	0	0	0	0	0	0	0	0	0	0	0	0	0	1	0.000	0.000
14.000000	4357.948718	4387.692308	4408.205128	3709.743590	4384.102564	4607.179487	4628.205128	4521.538462	4024.102564	4102.564103	4516.923077	4440.000000	4265.128205	3953.333333	1736.000000	1677.000000	83.181000	0.000000	0.000000	0.000000	0.000000	1	1	0	0	0	0	0	0	0	0	0	0	0	0	0	0	0	0	0	1	0.000	0.000
15.000000	4358.461538	4385.641026	4407.692308	3711.282051	4384.102564	4608.717949	4629.230769	4524.615385	4022.051282	4103.076923	4519.487179	4440.512821	4266.153846	3952.307692	1736.000000	1678.000000	83.189000	0.000000	0.000000	0.000000	0.000000	1	1	0	0	0	0	0	0	0	0	0	0	0	0	0	0	0	0	0	1	0.000	0.000
16.000000	4353.846154	4385.641026	4407.692308	3713.333333	4382.051282	4609.230769	4627.692308	4526.153846	4023.076923	4102.564103	4520.512821	4442.051282	4265.641026	3951.282051	1737.000000	1677.000000	83.202000	0.000000	0.000000	0.000000	0.000000	1	1	0	0	0	0	0	0	0	0	0	0	0	0	0	0	0	0	0	1	0.000	0.000
17.000000	4353.333333	4386.153846	4408.717949	3712.820513	4382.051282	4608.205128	4625.128205	4523.076923	4022.564103	4103.076923	4516.923077	4441.538462	4265.641026	3952.820513	1736.000000	1678.000000	83.204000	0.000000	0.000000	0.000000	0.000000	1	1	0	0	0	0	0	0	0	0	0	0	0	0	0	0	0	0	0	1	0.000	0.000
18.000000	4358.461538	4385.641026	4408.717949	3711.794872	4384.615385	4609.743590	4627.692308	4521.025641	4019.487179	4102.564103	4514.871795	4438.974359	4265.641026	3952.820513	1737.000000	1678.000000	83.212000	0.000000	0.000000	0.000000	0.000000	1	1	0	0	0	0	0	0	0	0	0	0	0	0	0	0	0	0	0	1	0.000	0.000
19.000000	4357.435897	4385.641026	4406.666667	3711.794872	4383.076923	4613.846154	4631.282051	4521.025641	4019.487179	4103.076923	4517.948718	4438.461538	4265.128205	3950.769231	1737.000000	1678.000000	83.220000	0.000000	0.000000	0.000000	0.000000	1	1	0	0	0	0	0	0	0	0	0	0	0	0	0	0	0	0	0	1	0.000	0.000
20.000000	4354.871795	4388.205128	4406.153846	3714.358974	4384.102564	4616.410256	4631.282051	4521.025641	4021.538462	4102.564103	4520.512821	4438.461538	4264.615385	3950.769231	1737.000000	1677.000000	83.234000	0.000000	0.000000	0.000000	0.000000	1	1	0	0	0	0	0	0	0	0	0	0	0	0	0	0	0	0	0	1	0.000	0.000
21.000000	4355.897436	4389.743590	4405.641026	3714.358974	4388.717949	4615.897436	4632.820513	4521.025641	4021.538462	4102.564103	4520.000000	4436.923077	4264.615385	3952.307692	1736.000000	1678.000000	83.235000	0.000000	0.000000	0.000000	0.000000	1	1	0	0	0	0	0	0	0	0	0	0	0	0	0	0	0	0	0	1	0.000	0.000
22.000000	4358.974359	4388.717949	4403.589744	3713.333333	4388.205128	4615.897436	4633.333333	4522.051282	4022.051282	4103.076923	4520.512821	4436.410256	4265.128205	3951.282051	1736.000000	1678.000000	83.243000	0.000000	0.000000	0.000000	0.000000	1	1	0	0	0	0	0	0	0	0	0	0	0	0	0	0	0	0	0	1	0.000	0.000
23.000000	4358.974359	4388.717949	4403.589744	3714.358974	4385.641026	4615.897436	4633.846154	4522.564103	4025.128205	4102.564103	4517.435897	4436.923077	4265.128205	3950.769231	1736.000000	1677.000000	83.251000	0.000000	0.000000	0.000000	0.000000	1	1	0	0	0	0	0	0	0	0	0	0	0	0	0	0	0	0	0	1	0.000	0.000
24.000000	4354.871795	4389.230769	4407.179487	3713.846154	4386.153846	4612.820513	4634.358974	4520.000000	4023.076923	4103.076923	4515.384615	4436.923077	4264.615385	3951.794872	1736.000000	1678.000000	83.265000	0.000000	0.000000	0.000000	0.000000	1	1	0	0	0	0	0	0	0	0	0	0	0	0	0	0	0	0	0	1	0.000	0.000
25.000000	4353.846154	4390.256410	4406.666667	3712.307692	4385.641026	4612.820513	4633.333333	4519.487179	4019.487179	4102.564103	4516.923077	4433.846154	4264.615385	3952.820513	1737.000000	1677.000000	83.267000	0.000000	0.000000	0.000000	0.000000	1	1	0	0	0	0	0	0	0	0	0	0	0	0	0	0	0	0	0	1	0.000	0.000
26.000000	4356.410256	4388.717949	4405.128205	3711.794872	4384.102564	4615.384615	4633.846154	4521.025641	4020.000000	4103.076923	4518.974359	4433.333333	4265.641026	3952.820513	1736.000000	1678.000000	83.275000	0.000000	0.000000	0.000000	0.000000	1	1	0	0	0	0	0	0	0	0	0	0	0	0	0	0	0	0	0	1	0.000	0.000
27.000000	4355.384615	4389.230769	4405.641026	3713.333333	4386.666667	4616.410256	4636.410256	4522.564103	4023.076923	4102.564103	4516.410256	4434.358974	4266.153846	3950.256410	1737.000000	1678.000000	83.282000	0.000000	0.000000	0.000000	0.000000	1	1	0	0	0	0	0	0	0	0	0	0	0	0	0	0	0	0	0	1	0.000	0.000
28.000000	4352.307692	4388.205128	4405.641026	3713.333333	4386.153846	4615.897436	4634.358974	4523.076923	4022.564103	4103.076923	4515.897436	4437.435897	4265.128205	3949.230769	1736.000000	1678.000000	83.297000	0.000000	0.000000	0.000000	0.000000	1	1	0	0	0	0	0	0	0	0	0	0	0	0	0	0	0	0	0	1	0.000	0.000
29.000000	4355.384615	4386.153846	4405.641026	3712.820513	4383.589744	4613.333333	4632.307692	4522.564103	4022.051282	4102.564103	4518.461538	4437.435897	4265.641026	3952.307692	1737.000000	1679.000000	83.298000	0.000000	0.000000	0.000000	0.000000	1	1	0	0	0	0	0	0	0	0	0	0	0	0	0	0	0	0	0	1	0.000	0.000
30.000000	4355.897436	4386.153846	4407.692308	3711.794872	4383.589744	4609.743590	4632.307692	4521.538462	4023.589744	4103.076923	4518.461538	4437.948718	4265.641026	3953.333333	1736.000000	1678.000000	83.306000	0.000000	0.000000	0.000000	0.000000	1	1	0	0	0	0	0	0	0	0	0	0	0	0	0	0	0	0	0	1	0.000	0.000
31.000000	4353.333333	4386.666667	4407.179487	3711.794872	4385.128205	4610.256410	4632.820513	4523.076923	4022.051282	4102.564103	4517.435897	4439.487179	4265.641026	3950.256410	1736.000000	1678.000000	83.314000	0.000000	0.000000	0.000000	0.000000	1	1	0	0	0	0	0	0	0	0	0	0	0	0	0	0	0	0	0	1	0.000	0.000
32.000000	4354.358974	4386.153846	4405.128205	3713.846154	4384.615385	4610.769231	4631.282051	4523.076923	4018.974359	4103.076923	4520.000000	4442.051282	4265.641026	3952.307692	1736.000000	1678.000000	83.329000	0.000000	0.000000	0.000000	0.000000	1	1	0	0	0	0	0	0	0	0	0	0	0	0	0	0	0	0	0	1	0.000	0.000
33.000000	4356.410256	4389.230769	4407.692308	3712.820513	4384.102564	4611.282051	4631.282051	4522.051282	4021.025641	4102.564103	4521.538462	4439.487179	4265.641026	3953.846154	1736.000000	1679.000000	83.329000	0.000000	0.000000	0.000000	0.000000	1	1	0	0	0	0	0	0	0	0	0	0	0	0	0	0	0	0	0	1	0.000	0.000
34.000000	4354.871795	4388.717949	4411.282051	3709.743590	4382.051282	4610.769231	4630.256410	4523.076923	4025.128205	4103.076923	4518.461538	4437.948718	4266.153846	3950.769231	1736.000000	1678.000000	83.337000	0.000000	0.000000	0.000000	0.000000	1	1	0	0	0	0	0	0	0	0	0	0	0	0	0	0	0	0	0	1	0.000	0.000
35.000000	4356.410256	4384.615385	4407.692308	3711.282051	4381.538462	4610.256410	4630.769231	4524.102564	4022.564103	4102.564103	4516.410256	4438.974359	4266.153846	3951.282051	1737.000000	1678.000000	83.345000	0.000000	0.000000	0.000000	0.000000	1	1	0	0	0	0	0	0	0	0	0	0	0	0	0	0	0	0	0	1	0.000	0.000
36.000000	4357.948718	4386.153846	4404.615385	3713.846154	4384.615385	4610.769231	4631.794872	4522.051282	4020.512821	4102.564103	4519.487179	4438.461538	4265.128205	3953.333333	1736.000000	1678.000000	83.359000	0.000000	0.000000	0.000000	0.000000	1	1	0	0	0	0	0	0	0	0	0	0	0	0	0	0	0	0	0	1	0.000	0.000
37.000000	4357.948718	4389.230769	4407.179487	3714.358974	4385.641026	4611.794872	4631.794872	4522.051282	4024.615385	4103.076923	4521.538462	4438.461538	4264.615385	3950.769231	1737.000000	1679.000000	83.361000	0.000000	0.000000	0.000000	0.000000	1	1	0	0	0	0	0	0	0	0	0	0	0	0	0	0	0	0	0	1	0.000	0.000
38.000000	4357.948718	4387.692308	4407.179487	3713.846154	4384.615385	4612.307692	4634.871795	4525.128205	4024.615385	4102.564103	4520.000000	4438.461538	4264.615385	3949.743590	1736.000000	1678.000000	83.368000	0.000000	0.000000	0.000000	0.000000	1	1	0	0	0	0	0	0	0	0	0	0	0	0	0	0	0	0	0	1	0.000	0.000
39.000000	4356.923077	4388.205128	4402.564103	3713.333333	4384.615385	4612.820513	4635.897436	4524.102564	4020.000000	4103.076923	4517.948718	4438.974359	4265.641026	3950.769231	1737.000000	1678.000000	83.377000	0.000000	0.000000	0.000000	0.000000	1	1	0	0	0	0	0	0	0	0	0	0	0	0	0	0	0	0	0	1	0.000	0.000
40.000000	4356.410256	4391.282051	4402.564103	3711.794872	4384.615385	4613.333333	4634.871795	4522.051282	4020.000000	4102.564103	4517.435897	4436.410256	4266.153846	3950.256410	1735.000000	1678.000000	83.391000	0.000000	0.000000	0.000000	0.000000	1	1	0	0	0	0	0	0	0	0	0	0	0	0	0	0	0	0	0	1	0.000	0.000
41.000000	4357.948718	4389.743590	4408.205128	3712.307692	4383.076923	4612.820513	4633.333333	4522.051282	4020.000000	4103.076923	4517.948718	4435.897436	4265.641026	3950.769231	1737.000000	1678.000000	83.392000	0.000000	0.000000	0.000000	0.000000	1	1	0	0	0	0	0	0	0	0	0	0	0	0	0	0	0	0	0	1	0.000	0.000
42.000000	4359.487179	4390.256410	4408.717949	3713.333333	4382.051282	4614.871795	4634.358974	4524.615385	4020.000000	4102.564103	4517.948718	4434.358974	4264.615385	3951.794872	1736.000000	1677.000000	83.400000	0.000000	0.000000	0.000000	0.000000	1	1	0	0	0	0	0	0	0	0	0	0	0	0	0	0	0	0	0	1	0.000	0.000
43.000000	4355.897436	4390.769231	4406.666667	3712.307692	4381.538462	4613.846154	4634.358974	4524.615385	4022.051282	4103.076923	4519.487179	4436.410256	4265.128205	3950.769231	1735.000000	1679.000000	83.408000	0.000000	0.000000	0.000000	0.000000	1	1	0	0	0	0	0	0	0	0	0	0	0	0	0	0	0	0	0	1	0.000	0.000
44.000000	4353.333333	4389.230769	4404.615385	3711.282051	4383.076923	4613.333333	4633.333333	4524.102564	4021.025641	4102.564103	4518.974359	4437.435897	4265.128205	3949.230769	1737.000000	1677.000000	83.420000	0.000000	0.000000	0.000000	0.000000	1	1	0	0	0	0	0	0	0	0	0	0	0	0	0	0	0	0	0	1	0.000	0.000
45.000000	4355.384615	4389.743590	4405.641026	3712.307692	4383.076923	4613.333333	4632.820513	4522.051282	4019.487179	4103.076923	4517.435897	4438.974359	4265.641026	3951.282051	1735.000000	1678.000000	83.423000	0.000000	0.000000	0.000000	0.000000	1	1	0	0	0	0	0	0	0	0	0	0	0	0	0	0	0	0	0	1	0.000	0.000
46.000000	4357.435897	4391.282051	4409.230769	3713.333333	4382.564103	4612.820513	4633.846154	4521.025641	4023.589744	4102.564103	4516.923077	4436.923077	4265.641026	3951.794872	1736.000000	1678.000000	83.431000	0.000000	0.000000	0.000000	0.000000	1	1	0	0	0	0	0	0	0	0	0	0	0	0	0	0	0	0	0	1	0.000	0.000
47.000000	4355.384615	4388.205128	4410.256410	3712.307692	4385.128205	4613.333333	4633.846154	4522.051282	4025.128205	4103.076923	4517.948718	4437.435897	4264.615385	3950.769231	1736.000000	1678.000000	83.439000	0.000000	0.000000	0.000000	0.000000	1	1	0	0	0	0	0	0	0	0	0	0	0	0	0	0	0	0	0	1	0.000	0.000
48.000000	4355.897436	4388.205128	4406.666667	3709.743590	4387.179487	4614.871795	4633.846154	4524.615385	4021.538462	4102.564103	4517.948718	4437.435897	4265.128205	3952.307692	1737.000000	1678.000000	83.453000	0.000000	0.000000	0.000000	0.000000	1	1	0	0	0	0	0	0	0	0	0	0	0	0	0	0	0	0	0	1	0.000	0.000
49.000000	4356.410256	4390.769231	4403.589744	3711.282051	4384.615385	4613.333333	4632.307692	4524.615385	4021.538462	4103.076923	4518.461538	4436.410256	4266.153846	3953.846154	1736.000000	1678.000000	83.454000	0.000000	0.000000	0.000000	0.000000	1	1	0	0	0	0	0	0	0	0	0	0	0	0	0	0	0	0	0	1	0.000	0.000
50.000000	4353.846154	4387.692308	4406.153846	3713.333333	4384.102564	4611.794872	4633.846154	4523.076923	4024.102564	4102.564103	4520.000000	4435.384615	4265.641026	3951.794872	1736.000000	1679.000000	83.462000	0.000000	0.000000	0.000000	0.000000	1	1	0	0	0	0	0	0	0	0	0	0	0	0	0	0	0	0	0	1	0.000	0.000
51.000000	4354.358974	4385.128205	4406.666667	3712.307692	4384.615385	4611.282051	4634.358974	4522.564103	4023.589744	4102.564103	4520.000000	4435.897436	4266.153846	3950.769231	1736.000000	1678.000000	83.470000	0.000000	0.000000	0.000000	0.000000	1	1	0	0	0	0	0	0	0	0	0	0	0	0	0	0	0	0	0	1	0.000	0.000
52.000000	4356.923077	4387.692308	4405.641026	3711.794872	4382.564103	4610.769231	4632.820513	4523.589744	4021.025641	4103.076923	4518.461538	4436.410256	4267.179487	3951.282051	1736.000000	1678.000000	83.484000	0.000000	0.000000	0.000000	0.000000	1	1	0	0	0	0	0	0	0	0	0	0	0	0	0	0	0	0	0	1	0.000	0.000
53.000000	4356.410256	4388.205128	4407.692308	3713.846154	4381.538462	4612.307692	4631.794872	4522.564103	4021.025641	4102.564103	4516.923077	4435.897436	4265.128205	3950.256410	1736.000000	1677.000000	83.486000	0.000000	0.000000	0.000000	0.000000	1	1	0	0	0	0	0	0	0	0	0	0	0	0	0	0	0	0	0	1	0.000	0.000
54.000000	4354.358974	4387.179487	4408.205128	3712.820513	4383.076923	4612.820513	4633.846154	4520.512821	4021.025641	4103.076923	4517.948718	4435.897436	4264.615385	3950.256410	1736.000000	1679.000000	83.494000	0.000000	0.000000	0.000000	0.000000	1	1	0	0	0	0	0	0	0	0	0	0	0	0	0	0	0	0	0	1	0.000	0.000
55.000000	4354.358974	4387.692308	4406.666667	3710.769231	4384.102564	4613.846154	4634.871795	4522.564103	4021.025641	4103.076923	4518.974359	4434.871795	4266.153846	3950.256410	1738.000000	1678.000000	83.501000	0.000000	0.000000	0.000000	0.000000	1	1	0	0	0	0	0	0	0	0	0	0	0	0	0	0	0	0	0	1	0.000	0.000
56.000000	4354.871795	4388.205128	4407.692308	3709.230769	4382.564103	4614.871795	4633.333333	4525.128205	4021.538462	4103.589744	4518.974359	4436.410256	4266.153846	3950.769231	1735.000000	1678.000000	83.517000	0.000000	0.000000	0.000000	0.000000	1	1	0	0	0	0	0	0	0	0	0	0	0	0	0	0	0	0	0	1	0.000	0.000
57.000000	4355.384615	4388.205128	4408.205128	3710.769231	4381.538462	4612.820513	4632.820513	4525.128205	4020.512821	4103.076923	4520.000000	4436.923077	4265.641026	3952.307692	1737.000000	1679.000000	83.518000	0.000000	0.000000	0.000000	0.000000	1	1	0	0	0	0	0	0	0	0	0	0	0	0	0	0	0	0	0	1	0.000	0.000
58.000000	4354.871795	4386.666667	4406.153846	3713.333333	4382.051282	4611.282051	4630.769231	4521.538462	4018.974359	4101.538462	4520.000000	4435.897436	4265.128205	3951.794872	1736.000000	1678.000000	83.525000	0.000000	0.000000	0.000000	0.000000	1	1	0	0	0	0	0	0	0	0	0	0	0	0	0	0	0	0	0	1	0.000	0.000
59.000000	4353.846154	4386.153846	4406.153846	3713.333333	4385.641026	4614.871795	4630.769231	4525.641026	4025.128205	4106.153846	4520.512821	4438.461538	4265.641026	3951.282051	1737.000000	1679.000000	83.533000	0.000000	0.000000	0.000000	0.000000	1	1	0	0	0	0	0	0	0	0	0	0	0	0	0	0	0	0	0	1	0.000	0.000
60.000000	4354.358974	4387.692308	4407.179487	3710.256410	4385.641026	4614.358974	4633.333333	4522.051282	4023.076923	4099.487179	4517.435897	4438.461538	4265.641026	3950.256410	1737.000000	1678.000000	83.546000	0.000000	0.000000	0.000000	0.000000	1	1	0	0	0	0	0	0	0	0	0	0	0	0	0	0	0	0	0	1	0.000	0.000
61.000000	4356.923077	4390.256410	4407.179487	3710.256410	4383.076923	4612.820513	4633.846154	4516.923077	4014.358974	4092.307692	4514.358974	4431.794872	4264.615385	3951.282051	1736.000000	1678.000000	83.550000	0.000000	0.000000	0.000000	0.000000	1	1	0	0	0	0	0	0	0	0	0	0	0	0	0	0	0	0	0	1	0.000	0.000
62.000000	4355.897436	4387.179487	4408.205128	3712.820513	4383.076923	4613.846154	4630.256410	4513.333333	4018.461538	4096.923077	4515.384615	4434.358974	4263.076923	3950.769231	1736.000000	1677.000000	83.556000	0.000000	0.000000	0.000000	0.000000	1	1	0	0	0	0	0	0	0	0	0	0	0	0	0	0	0	0	0	1	0.000	0.000
63.000000	4353.333333	4387.179487	4405.128205	3711.794872	4385.128205	4613.333333	4631.282051	4507.179487	4015.897436	4094.358974	4512.820513	4434.358974	4261.025641	3943.589744	1737.000000	1678.000000	83.564000	0.000000	0.000000	0.000000	0.000000	1	1	0	0	0	0	0	0	0	0	0	0	0	0	0	0	0	0	0	1	0.000	0.000
64.000000	4353.846154	4387.692308	4404.615385	3710.256410	4383.076923	4613.333333	4634.871795	4515.384615	4014.871795	4097.435897	4514.871795	4433.846154	4263.076923	3946.153846	1737.000000	1677.000000	83.576000	0.000000	0.000000	0.000000	0.000000	1	1	0	0	0	0	0	0	0	0	0	0	0	0	0	0	0	0	0	1	0.000	0.000
65.000000	4355.897436	4386.153846	4405.641026	3713.333333	4381.538462	4615.384615	4634.358974	4521.538462	4019.487179	4102.051282	4515.897436	4433.333333	4264.615385	3950.769231	1736.000000	1679.000000	83.580000	0.000000	0.000000	0.000000	0.000000	1	1	0	0	0	0	0	0	0	0	0	0	0	0	0	0	0	0	0	1	0.000	0.000
66.000000	4355.384615	4385.128205	4408.205128	3713.846154	4384.615385	4613.846154	4632.820513	4522.564103	4024.102564	4105.128205	4517.435897	4437.435897	4264.102564	3951.794872	1737.000000	1678.000000	83.587000	0.000000	0.000000	0.000000	0.000000	1	1	0	0	0	0	0	0	0	0	0	0	0	0	0	0	0	0	0	1	0.000	0.000
67.000000	4354.871795	4387.692308	4407.692308	3712.307692	4386.153846	4611.794872	4634.358974	4524.615385	4023.589744	4104.102564	4518.461538	4436.923077	4265.128205	3952.820513	1736.000000	1678.000000	83.595000	0.000000	0.000000	0.000000	0.000000	1	1	0	0	0	0	0	0	0	0	0	0	0	0	0	0	0	0	0	1	0.000	0.000
68.000000	4354.358974	4387.692308	4406.153846	3711.282051	4383.589744	4611.794872	4634.871795	4528.717949	4026.666667	4108.717949	4521.025641	4435.897436	4266.666667	3956.923077	1737.000000	1678.000000	83.608000	0.000000	0.000000	0.000000	0.000000	1	1	0	0	0	0	0	0	0	0	0	0	0	0	0	0	0	0	0	1	0.000	0.000
69.000000	4355.897436	4387.692308	4407.179487	3711.282051	4381.025641	4611.282051	4632.820513	4531.282051	4030.256410	4111.794872	4522.564103	4441.025641	4266.666667	3956.923077	1735.000000	1678.000000	83.612000	0.000000	0.000000	0.000000	0.000000	1	1	0	0	0	0	0	0	0	0	0	0	0	0	0	0	0	0	0	1	0.000	0.000
70.000000	4357.435897	4388.205128	4408.717949	3711.282051	4383.076923	4610.769231	4631.794872	4530.256410	4027.692308	4109.230769	4521.025641	4443.589744	4265.641026	3954.358974	1735.000000	1679.000000	83.619000	0.000000	0.000000	0.000000	0.000000	1	1	0	0	0	0	0	0	0	0	0	0	0	0	0	0	0	0	0	1	0.000	0.000
71.000000	4354.358974	4386.666667	4408.717949	3712.307692	4385.128205	4611.282051	4631.794872	4529.230769	4030.769231	4110.769231	4520.000000	4444.615385	4268.205128	3954.871795	1736.000000	1677.000000	83.626000	0.000000	0.000000	0.000000	0.000000	1	1	0	0	0	0	0	0	0	0	0	0	0	0	0	0	0	0	0	1	0.000	0.000
72.000000	4353.333333	4386.153846	4406.153846	3712.307692	4382.564103	4610.256410	4631.794872	4522.564103	4029.230769	4105.128205	4517.435897	4438.974359	4267.692308	3951.282051	1735.000000	1678.000000	83.640000	0.000000	0.000000	0.000000	0.000000	1	1	0	0	0	0	0	0	0	0	0	0	0	0	0	0	0	0	0	1	0.000	0.000
73.000000	4355.897436	4386.666667	4408.205128	3711.282051	4381.025641	4608.717949	4632.307692	4525.641026	4027.179487	4104.615385	4520.000000	4441.025641	4266.153846	3951.794872	1736.000000	1678.000000	83.642000	0.000000	0.000000	0.000000	0.000000	1	1	0	0	0	0	0	0	0	0	0	0	0	0	0	0	0	0	0	1	0.000	0.000
74.000000	4355.384615	4385.128205	4408.205128	3711.794872	4383.589744	4611.794872	4632.820513	4523.076923	4024.102564	4103.076923	4518.974359	4440.512821	4264.615385	3950.256410	1736.000000	1679.000000	83.650000	0.000000	0.000000	0.000000	0.000000	1	1	0	0	0	0	0	0	0	0	0	0	0	0	0	0	0	0	0	1	0.000	0.000
75.000000	4352.307692	4383.076923	4406.153846	3711.282051	4383.076923	4612.820513	4631.794872	4517.948718	4024.102564	4102.564103	4517.435897	4439.487179	4264.615385	3949.743590	1736.000000	1678.000000	83.658000	0.000000	0.000000	0.000000	0.000000	1	1	0	0	0	0	0	0	0	0	0	0	0	0	0	0	0	0	0	1	0.000	0.000
76.000000	4354.871795	4384.615385	4406.666667	3710.256410	4382.051282	4610.769231	4631.282051	4523.076923	4025.641026	4103.589744	4518.974359	4438.974359	4266.666667	3952.820513	1736.000000	1679.000000	83.671000	0.000000	0.000000	0.000000	0.000000	1	1	0	0	0	0	0	0	0	0	0	0	0	0	0	0	0	0	0	1	0.000	0.000
77.000000	4356.410256	4384.102564	4410.256410	3710.256410	4382.564103	4609.743590	4629.743590	4523.076923	4018.974359	4101.538462	4517.948718	4438.974359	4264.615385	3953.333333	1737.000000	1677.000000	83.674000	0.000000	0.000000	0.000000	0.000000	1	1	0	0	0	0	0	0	0	0	0	0	0	0	0	0	0	0	0	1	0.000	0.000
78.000000	4355.384615	4382.564103	4409.230769	3711.282051	4382.564103	4611.794872	4628.205128	4523.076923	4022.051282	4104.615385	4518.461538	4438.974359	4264.102564	3952.307692	1736.000000	1678.000000	83.681000	0.000000	0.000000	0.000000	0.000000	1	1	0	0	0	0	0	0	0	0	0	0	0	0	0	0	0	0	0	1	0.000	0.000
79.000000	4354.871795	4383.076923	4406.153846	3710.769231	4382.564103	4612.307692	4626.153846	4521.538462	4026.153846	4104.102564	4518.461538	4440.000000	4266.153846	3950.769231	1737.000000	1678.000000	83.689000	0.000000	0.000000	0.000000	0.000000	1	1	0	0	0	0	0	0	0	0	0	0	0	0	0	0	0	0	0	1	0.000	0.000
80.000000	4354.871795	4386.153846	4406.666667	3711.794872	4385.128205	4611.794872	4626.153846	4522.564103	4024.615385	4103.076923	4518.461538	4441.025641	4266.666667	3952.307692	1736.000000	1677.000000	83.701000	0.000000	0.000000	0.000000	0.000000	1	1	0	0	0	0	0	0	0	0	0	0	0	0	0	0	0	0	0	1	0.000	0.000
81.000000	4355.384615	4387.179487	4409.743590	3713.333333	4385.128205	4608.717949	4626.153846	4522.051282	4023.076923	4102.564103	4518.974359	4443.076923	4264.615385	3952.307692	1736.000000	1678.000000	83.705000	0.000000	0.000000	0.000000	0.000000	1	1	0	0	0	0	0	0	0	0	0	0	0	0	0	0	0	0	0	1	0.000	0.000
82.000000	4355.384615	4386.666667	4411.282051	3712.820513	4383.076923	4608.205128	4627.179487	4523.076923	4026.153846	4102.564103	4519.487179	4441.025641	4265.128205	3951.282051	1737.000000	1677.000000	83.712000	0.000000	0.000000	0.000000	0.000000	1	1	0	0	0	0	0	0	0	0	0	0	0	0	0	0	0	0	0	1	0.000	0.000
83.000000	4352.820513	4385.641026	4410.256410	3710.769231	4382.051282	4611.282051	4629.743590	4523.589744	4025.641026	4103.076923	4518.974359	4437.435897	4266.153846	3951.794872	1736.000000	1678.000000	83.720000	0.000000	0.000000	0.000000	0.000000	1	1	0	0	0	0	0	0	0	0	0	0	0	0	0	0	0	0	0	1	0.000	0.000
84.000000	4353.333333	4386.666667	4407.179487	3710.769231	4382.051282	4612.820513	4631.282051	4522.564103	4021.538462	4102.564103	4517.948718	4438.974359	4264.615385	3950.256410	1737.000000	1678.000000	83.732000	0.000000	0.000000	0.000000	0.000000	1	1	0	0	0	0	0	0	0	0	0	0	0	0	0	0	0	0	0	1	0.000	0.000
85.000000	4354.871795	4388.717949	4406.666667	3711.282051	4383.589744	4610.769231	4631.794872	4524.615385	4022.051282	4103.076923	4518.974359	4442.051282	4265.128205	3951.282051	1737.000000	1678.000000	83.736000	0.000000	0.000000	0.000000	0.000000	1	1	0	0	0	0	0	0	0	0	0	0	0	0	0	0	0	0	0	1	0.000	0.000
86.000000	4355.897436	4388.717949	4408.717949	3712.307692	4382.564103	4609.743590	4631.282051	4524.615385	4025.128205	4102.564103	4520.000000	4441.025641	4266.666667	3955.384615	1737.000000	1678.000000	83.744000	0.000000	0.000000	0.000000	0.000000	1	1	0	0	0	0	0	0	0	0	0	0	0	0	0	0	0	0	0	1	0.000	0.000
87.000000	4356.923077	4386.153846	4410.256410	3713.333333	4380.000000	4610.769231	4627.692308	4521.025641	4025.128205	4103.076923	4518.974359	4438.974359	4265.641026	3954.871795	1736.000000	1679.000000	83.752000	0.000000	0.000000	0.000000	0.000000	1	1	0	0	0	0	0	0	0	0	0	0	0	0	0	0	0	0	0	1	0.000	0.000
88.000000	4356.410256	4385.128205	4411.282051	3713.333333	4381.538462	4610.256410	4627.179487	4519.487179	4021.538462	4102.564103	4521.025641	4441.025641	4265.641026	3952.820513	1737.000000	1678.000000	83.765000	0.000000	0.000000	0.000000	0.000000	1	1	0	0	0	0	0	0	0	0	0	0	0	0	0	0	0	0	0	1	0.000	0.000
89.000000	4355.384615	4387.692308	4409.230769	3711.282051	4383.076923	4609.743590	4629.743590	4523.589744	4020.000000	4103.076923	4521.025641	4440.000000	4266.153846	3951.794872	1736.000000	1678.000000	83.767000	0.000000	0.000000	0.000000	0.000000	1	1	0	0	0	0	0	0	0	0	0	0	0	0	0	0	0	0	0	1	0.000	0.000
90.000000	4354.871795	4386.666667	4408.717949	3709.230769	4381.538462	4607.692308	4627.692308	4524.102564	4020.512821	4102.564103	4517.948718	4441.025641	4265.128205	3953.333333	1737.000000	1678.000000	83.775000	0.000000	0.000000	0.000000	0.000000	1	1	0	0	0	0	0	0	0	0	0	0	0	0	0	0	0	0	0	1	0.000	0.000
91.000000	4354.358974	4385.641026	4409.230769	3710.256410	4382.051282	4607.692308	4626.666667	4522.564103	4018.461538	4103.076923	4520.000000	4440.000000	4264.102564	3953.333333	1736.000000	1678.000000	83.783000	0.000000	0.000000	0.000000	0.000000	1	1	0	0	0	0	0	0	0	0	0	0	0	0	0	0	0	0	0	1	0.000	0.000
92.000000	4353.333333	4388.717949	4408.717949	3711.794872	4383.076923	4607.692308	4627.692308	4522.564103	4018.974359	4102.564103	4522.564103	4439.487179	4265.128205	3952.820513	1736.000000	1677.000000	83.796000	0.000000	0.000000	0.000000	0.000000	1	1	0	0	0	0	0	0	0	0	0	0	0	0	0	0	0	0	0	1	0.000	0.000
93.000000	4356.410256	4390.256410	4408.717949	3711.794872	4383.589744	4608.205128	4627.179487	4524.615385	4024.102564	4103.076923	4519.487179	4438.974359	4266.153846	3952.820513	1736.000000	1678.000000	83.798000	0.000000	0.000000	0.000000	0.000000	1	1	0	0	0	0	0	0	0	0	0	0	0	0	0	0	0	0	0	1	0.000	0.000
94.000000	4357.948718	4386.666667	4410.256410	3711.282051	4383.589744	4608.205128	4626.666667	4525.641026	4024.102564	4102.564103	4518.974359	4442.564103	4265.128205	3953.846154	1736.000000	1678.000000	83.806000	0.000000	0.000000	0.000000	0.000000	1	1	0	0	0	0	0	0	0	0	0	0	0	0	0	0	0	0	0	1	0.000	0.000
95.000000	4357.435897	4387.179487	4410.256410	3712.307692	4384.102564	4608.205128	4629.230769	4525.128205	4021.538462	4102.564103	4521.025641	4445.641026	4265.641026	3951.794872	1736.000000	1679.000000	83.814000	0.000000	0.000000	0.000000	0.000000	1	1	0	0	0	0	0	0	0	0	0	0	0	0	0	0	0	0	0	1	0.000	0.000
96.000000	4356.923077	4386.153846	4407.179487	3711.794872	4384.102564	4608.717949	4627.179487	4522.564103	4021.025641	4103.076923	4520.512821	4445.641026	4265.641026	3950.769231	1736.000000	1678.000000	83.826000	0.000000	0.000000	0.000000	0.000000	1	1	0	0	0	0	0	0	0	0	0	0	0	0	0	0	0	0	0	1	0.000	0.000
97.000000	4354.358974	4383.589744	4407.179487	3710.769231	4383.076923	4609.230769	4627.179487	4521.025641	4022.564103	4102.564103	4522.051282	4441.538462	4266.153846	3952.307692	1735.000000	1678.000000	83.831000	0.000000	0.000000	0.000000	0.000000	1	1	0	0	0	0	0	0	0	0	0	0	0	0	0	0	0	0	0	1	0.000	0.000
98.000000	4352.820513	4385.128205	4410.256410	3711.282051	4382.051282	4606.666667	4629.230769	4521.538462	4023.589744	4103.076923	4524.102564	4440.000000	4266.153846	3953.333333	1736.000000	1678.000000	83.838000	0.000000	0.000000	0.000000	0.000000	1	1	0	0	0	0	0	0	0	0	0	0	0	0	0	0	0	0	0	1	0.000	0.000
99.000000	4353.846154	4386.153846	4410.769231	3712.307692	4382.564103	4605.128205	4627.692308	4523.076923	4024.102564	4102.564103	4520.000000	4441.538462	4265.641026	3952.307692	1735.000000	1677.000000	83.845000	0.000000	0.000000	0.000000	0.000000	1	1	0	0	0	0	0	0	0	0	0	0	0	0	0	0	0	0	0	1	0.000	0.000
100.000000	4353.333333	4384.102564	4408.205128	3712.307692	4382.051282	4606.153846	4625.641026	4521.538462	4024.102564	4103.076923	4519.487179	4443.076923	4265.641026	3952.307692	1735.000000	1679.000000	83.857000	0.000000	0.000000	0.000000	0.000000	1	1	0	0	0	0	0	0	0	0	0	0	0	0	0	0	0	0	0	1	0.000	0.000
101.000000	4353.846154	4386.153846	4408.717949	3711.794872	4382.051282	4608.205128	4627.179487	4520.000000	4021.538462	4102.564103	4522.564103	4443.589744	4266.153846	3951.794872	1737.000000	1677.000000	83.861000	0.000000	0.000000	0.000000	0.000000	1	1	0	0	0	0	0	0	0	0	0	0	0	0	0	0	0	0	0	1	0.000	0.000
102.000000	4354.871795	4387.179487	4411.282051	3710.256410	4384.102564	4609.230769	4626.153846	4522.051282	4020.512821	4103.076923	4521.025641	4443.076923	4266.666667	3951.282051	1736.000000	1679.000000	83.869000	0.000000	0.000000	0.000000	0.000000	1	1	0	0	0	0	0	0	0	0	0	0	0	0	0	0	0	0	0	1	0.000	0.000
103.000000	4354.358974	4384.615385	4410.256410	3709.230769	4384.615385	4610.256410	4624.615385	4525.128205	4023.076923	4102.564103	4518.974359	4442.564103	4265.128205	3953.333333	1737.000000	1678.000000	83.877000	0.000000	0.000000	0.000000	0.000000	1	1	0	0	0	0	0	0	0	0	0	0	0	0	0	0	0	0	0	1	0.000	0.000
104.000000	4354.358974	4385.128205	4407.692308	3710.256410	4384.102564	4609.743590	4627.179487	4523.589744	4023.589744	4103.076923	4520.000000	4441.025641	4265.128205	3954.358974	1737.000000	1678.000000	83.889000	0.000000	0.000000	0.000000	0.000000	1	1	0	0	0	0	0	0	0	0	0	0	0	0	0	0	0	0	0	1	0.000	0.000
105.000000	4354.871795	4385.128205	4408.205128	3711.282051	4384.102564	4608.205128	4627.692308	4518.974359	4018.461538	4102.564103	4520.000000	4442.051282	4264.615385	3953.846154	1736.000000	1678.000000	83.893000	0.000000	0.000000	0.000000	0.000000	1	1	0	0	0	0	0	0	0	0	0	0	0	0	0	0	0	0	0	1	0.000	0.000
106.000000	4352.820513	4385.128205	4407.692308	3711.282051	4383.589744	4609.230769	4625.641026	4518.461538	4017.435897	4103.076923	4519.487179	4439.487179	4265.128205	3953.333333	1736.000000	1679.000000	83.900000	0.000000	0.000000	0.000000	0.000000	1	1	0	0	0	0	0	0	0	0	0	0	0	0	0	0	0	0	0	1	0.000	0.000
107.000000	4351.282051	4387.692308	4408.717949	3711.282051	4383.076923	4608.205128	4625.128205	4520.512821	4020.512821	4102.564103	4521.025641	4441.025641	4265.641026	3951.794872	1736.000000	1678.000000	83.908000	0.000000	0.000000	0.000000	0.000000	1	1	0	0	0	0	0	0	0	0	0	0	0	0	0	0	0	0	0	1	0.000	0.000
108.000000	4354.871795	4388.205128	4408.205128	3712.820513	4386.666667	4606.666667	4626.153846	4521.025641	4021.538462	4103.076923	4520.000000	4443.589744	4265.641026	3951.794872	1735.000000	1678.000000	83.920000	0.000000	0.000000	0.000000	0.000000	1	1	0	0	0	0	0	0	0	0	0	0	0	0	0	0	0	0	0	1	0.000	0.000
109.000000	4355.897436	4385.128205	4407.692308	3712.820513	4385.641026	4606.666667	4624.615385	4520.512821	4022.051282	4102.564103	4518.974359	4444.102564	4265.128205	3955.384615	1736.000000	1678.000000	83.924000	0.000000	0.000000	0.000000	0.000000	1	1	0	0	0	0	0	0	0	0	0	0	0	0	0	0	0	0	0	1	0.000	0.000
110.000000	4353.846154	4384.615385	4408.205128	3712.307692	4382.564103	4608.717949	4625.128205	4521.025641	4025.128205	4102.564103	4519.487179	4441.538462	4266.666667	3954.871795	1736.000000	1677.000000	83.931000	0.000000	0.000000	0.000000	0.000000	1	1	0	0	0	0	0	0	0	0	0	0	0	0	0	0	0	0	0	1	0.000	0.000
111.000000	4353.846154	4385.641026	4408.717949	3712.307692	4383.076923	4607.692308	4624.615385	4521.538462	4024.615385	4103.076923	4521.025641	4442.564103	4267.692308	3951.282051	1736.000000	1679.000000	83.939000	0.000000	0.000000	0.000000	0.000000	1	1	0	0	0	0	0	0	0	0	0	0	0	0	0	0	0	0	0	1	0.000	0.000
112.000000	4355.384615	4387.179487	4408.205128	3712.820513	4384.102564	4607.692308	4624.102564	4522.564103	4022.564103	4102.564103	4521.025641	4441.538462	4267.179487	3952.307692	1737.000000	1677.000000	83.950000	0.000000	0.000000	0.000000	0.000000	1	1	0	0	0	0	0	0	0	0	0	0	0	0	0	0	0	0	0	1	0.000	0.000
113.000000	4354.358974	4387.692308	4409.230769	3711.794872	4383.589744	4608.717949	4625.641026	4521.538462	4022.564103	4103.076923	4518.974359	4441.538462	4266.666667	3954.871795	1735.000000	1678.000000	83.955000	0.000000	0.000000	0.000000	0.000000	1	1	0	0	0	0	0	0	0	0	0	0	0	0	0	0	0	0	0	1	0.000	0.000
114.000000	4353.846154	4385.128205	4410.256410	3712.307692	4383.589744	4607.179487	4626.153846	4522.051282	4021.538462	4102.564103	4518.461538	4443.589744	4266.666667	3953.333333	1737.000000	1678.000000	83.963000	0.000000	0.000000	0.000000	0.000000	1	1	0	0	0	0	0	0	0	0	0	0	0	0	0	0	0	0	0	1	0.000	0.000
115.000000	4355.384615	4383.076923	4409.230769	3713.333333	4383.076923	4606.153846	4624.102564	4522.564103	4021.025641	4103.076923	4521.538462	4445.641026	4265.128205	3952.820513	1736.000000	1678.000000	83.971000	0.000000	0.000000	0.000000	0.000000	1	1	0	0	0	0	0	0	0	0	0	0	0	0	0	0	0	0	0	1	0.000	0.000
116.000000	4353.846154	4386.153846	4409.743590	3711.794872	4382.051282	4608.717949	4626.153846	4522.051282	4022.564103	4102.564103	4523.076923	4442.564103	4264.102564	3953.333333	1737.000000	1678.000000	83.982000	0.000000	0.000000	0.000000	0.000000	1	1	0	0	0	0	0	0	0	0	0	0	0	0	0	0	0	0	0	1	0.000	0.000
117.000000	4352.307692	4389.230769	4409.743590	3711.282051	4382.051282	4611.282051	4627.692308	4523.076923	4023.076923	4103.076923	4520.512821	4442.051282	4265.641026	3952.820513	1735.000000	1677.000000	83.986000	0.000000	0.000000	0.000000	0.000000	1	1	0	0	0	0	0	0	0	0	0	0	0	0	0	0	0	0	0	1	0.000	0.000
118.000000	4353.846154	4385.128205	4407.692308	3713.333333	4382.564103	4609.743590	4625.641026	4523.589744	4024.102564	4102.564103	4521.025641	4443.589744	4266.153846	3952.820513	1737.000000	1678.000000	83.994000	0.000000	0.000000	0.000000	0.000000	1	1	0	0	0	0	0	0	0	0	0	0	0	0	0	0	0	0	0	1	0.000	0.000
119.000000	4355.897436	4382.051282	4406.666667	3711.794872	4382.564103	4605.128205	4624.615385	4521.538462	4025.128205	4103.076923	4521.025641	4443.076923	4265.641026	3954.358974	1735.000000	1678.000000	84.002000	0.000000	0.000000	0.000000	0.000000	1	1	0	0	0	0	0	0	0	0	0	0	0	0	0	0	0	0	0	1	0.000	0.000
120.000000	4354.871795	4385.641026	4409.230769	3711.794872	4382.564103	4604.615385	4625.641026	4520.512821	4021.025641	4102.564103	4519.487179	4442.051282	4265.128205	3953.846154	1737.000000	1679.000000	84.017000	0.000000	0.000000	0.000000	0.000000	1	1	0	0	0	0	0	0	0	0	0	0	0	0	0	0	0	0	0	1	0.000	0.000
121.000000	4352.820513	4388.205128	4409.743590	3713.846154	4382.051282	4607.692308	4625.128205	4524.615385	4019.487179	4103.076923	4520.000000	4438.974359	4265.641026	3950.769231	1737.000000	1677.000000	84.017000	0.000000	0.000000	0.000000	0.000000	1	1	0	0	0	0	0	0	0	0	0	0	0	0	0	0	0	0	0	1	0.000	0.000
122.000000	4352.820513	4384.615385	4407.692308	3713.333333	4381.538462	4607.692308	4623.589744	4524.102564	4022.564103	4102.564103	4521.538462	4442.051282	4265.641026	3950.769231	1735.000000	1679.000000	84.025000	0.000000	0.000000	0.000000	0.000000	1	1	0	0	0	0	0	0	0	0	0	0	0	0	0	0	0	0	0	1	0.000	0.000
123.000000	4357.435897	4384.102564	4407.692308	3713.333333	4383.076923	4607.179487	4625.128205	4522.051282	4023.589744	4103.076923	4520.512821	4445.641026	4265.128205	3951.794872	1736.000000	1677.000000	84.033000	0.000000	0.000000	0.000000	0.000000	1	1	0	0	0	0	0	0	0	0	0	0	0	0	0	0	0	0	0	1	0.000	0.000
124.000000	4356.923077	4384.615385	4411.282051	3711.794872	4382.051282	4606.666667	4624.615385	4522.564103	4021.025641	4102.564103	4522.051282	4444.102564	4264.615385	3951.794872	1736.000000	1678.000000	84.046000	0.000000	0.000000	0.000000	0.000000	1	1	0	0	0	0	0	0	0	0	0	0	0	0	0	0	0	0	0	1	0.000	0.000
125.000000	4351.794872	4386.153846	4410.769231	3712.820513	4381.538462	4607.692308	4624.615385	4523.589744	4021.538462	4102.564103	4521.538462	4439.487179	4265.128205	3951.282051	1736.000000	1678.000000	84.049000	0.000000	0.000000	0.000000	0.000000	1	1	0	0	0	0	0	0	0	0	0	0	0	0	0	0	0	0	0	1	0.000	0.000
126.000000	4351.794872	4387.692308	4409.230769	3717.435897	4383.589744	4608.717949	4624.615385	4522.051282	4023.076923	4103.076923	4520.000000	4442.564103	4265.128205	3951.794872	1735.000000	1678.000000	84.057000	0.000000	0.000000	0.000000	0.000000	1	1	0	0	0	0	0	0	0	0	0	0	0	0	0	0	0	0	0	1	0.000	0.000
127.000000	4354.871795	4387.692308	4409.230769	3715.897436	4385.128205	4608.205128	4625.128205	4522.564103	4021.025641	4102.564103	4521.025641	4444.615385	4265.128205	3952.307692	1737.000000	1678.000000	84.064000	0.000000	0.000000	0.000000	0.000000	1	1	0	0	0	0	0	0	0	0	0	0	0	0	0	0	0	0	0	1	0.000	0.000
128.000000	4353.846154	4384.615385	4410.769231	3710.256410	4383.589744	4606.666667	4624.615385	4523.589744	4020.000000	4103.076923	4523.076923	4442.564103	4265.641026	3952.307692	1736.000000	1677.000000	84.078000	0.000000	0.000000	0.000000	0.000000	1	1	0	0	0	0	0	0	0	0	0	0	0	0	0	0	0	0	0	1	0.000	0.000
0.000000	4355.897436	4385.641026	4410.769231	3710.256410	4382.564103	4608.205128	4626.153846	4523.076923	4022.564103	4102.564103	4520.512821	4439.487179	4266.153846	3951.794872	1736.000000	1678.000000	84.080000	0.000000	0.000000	0.000000	0.000000	1	1	0	0	0	0	0	0	0	0	0	0	0	0	0	0	0	0	0	1	0.000	0.000
1.000000	4357.948718	4388.205128	4410.769231	3712.820513	4381.538462	4608.717949	4626.666667	4522.051282	4024.102564	4103.076923	4517.948718	4442.051282	4265.128205	3952.820513	1736.000000	1678.000000	84.088000	0.000000	0.000000	0.000000	0.000000	1	1	0	0	0	0	0	0	0	0	0	0	0	0	0	0	0	0	0	1	0.000	0.000
2.000000	4355.384615	4387.179487	4408.717949	3712.820513	4383.076923	4607.692308	4626.666667	4523.076923	4024.102564	4102.564103	4517.948718	4443.076923	4264.102564	3953.846154	1737.000000	1679.000000	84.096000	0.000000	0.000000	0.000000	0.000000	1	1	0	0	0	0	0	0	0	0	0	0	0	0	0	0	0	0	0	1	0.000	0.000
3.000000	4354.358974	4386.666667	4406.153846	3712.820513	4383.076923	4608.205128	4628.205128	4522.564103	4023.589744	4103.076923	4518.974359	4441.538462	4265.128205	3950.769231	1736.000000	1677.000000	84.111000	0.000000	0.000000	0.000000	0.000000	1	1	0	0	0	0	0	0	0	0	0	0	0	0	0	0	0	0	0	1	0.000	0.000
4.000000	4357.435897	4388.205128	4407.692308	3713.846154	4382.564103	4610.256410	4627.179487	4520.512821	4021.538462	4102.564103	4521.538462	4441.538462	4266.153846	3950.256410	1736.000000	1679.000000	84.111000	0.000000	0.000000	0.000000	0.000000	1	1	0	0	0	0	0	0	0	0	0	0	0	0	0	0	0	0	0	1	0.000	0.000
5.000000	4357.435897	4388.205128	4409.743590	3715.897436	4383.076923	4609.743590	4626.153846	4522.564103	4022.051282	4103.076923	4520.512821	4442.051282	4264.615385	3953.333333	1737.000000	1677.000000	84.119000	0.000000	0.000000	0.000000	0.000000	1	1	0	0	0	0	0	0	0	0	0	0	0	0	0	0	0	0	0	1	0.000	0.000
6.000000	4356.923077	4388.717949	4408.717949	3714.358974	4383.589744	4606.153846	4626.666667	4526.153846	4023.076923	4102.564103	4517.435897	4438.974359	4264.102564	3952.307692	1735.000000	1678.000000	84.127000	0.000000	0.000000	0.000000	0.000000	1	1	0	0	0	0	0	0	0	0	0	0	0	0	0	0	0	0	0	1	0.000	0.000
7.000000	4357.948718	4388.717949	4406.666667	3709.743590	4382.051282	4604.615385	4628.205128	4523.589744	4021.538462	4103.076923	4519.487179	4437.948718	4266.153846	3950.256410	1737.000000	1678.000000	84.142000	0.000000	0.000000	0.000000	0.000000	1	1	0	0	0	0	0	0	0	0	0	0	0	0	0	0	0	0	0	1	0.000	0.000
8.000000	4357.435897	4387.179487	4408.717949	3711.794872	4381.025641	4609.230769	4627.179487	4521.025641	4022.564103	4102.564103	4521.538462	4441.025641	4266.153846	3953.333333	1736.000000	1677.000000	84.143000	0.000000	0.000000	0.000000	0.000000	1	1	0	0	0	0	0	0	0	0	0	0	0	0	0	0	0	0	0	1	0.000	0.000
9.000000	4356.923077	4387.179487	4409.743590	3715.384615	4383.076923	4611.282051	4626.153846	4523.589744	4025.128205	4103.076923	4519.487179	4441.025641	4265.128205	3954.358974	1736.000000	1678.000000	84.151000	0.000000	0.000000	0.000000	0.000000	1	1	0	0	0	0	0	0	0	0	0	0	0	0	0	0	0	0	0	1	0.000	0.000
10.000000	4355.897436	4387.179487	4407.692308	3712.820513	4384.615385	4608.205128	4625.641026	4521.538462	4021.538462	4102.564103	4520.512821	4441.538462	4265.641026	3951.794872	1736.000000	1678.000000	84.158000	0.000000	0.000000	0.000000	0.000000	1	1	0	0	0	0	0	0	0	0	0	0	0	0	0	0	0	0	0	1	0.000	0.000
11.000000	4356.410256	4387.692308	4406.153846	3712.307692	4385.128205	4609.743590	4627.692308	4520.000000	4021.025641	4102.564103	4522.564103	4438.461538	4266.666667	3951.794872	1736.000000	1679.000000	84.172000	0.000000	0.000000	0.000000	0.000000	1	1	0	0	0	0	0	0	0	0	0	0	0	0	0	0	0	0	0	1	0.000	0.000
12.000000	4357.435897	4389.230769	4408.205128	3713.333333	4382.564103	4611.794872	4628.205128	4522.564103	4023.076923	4103.076923	4521.025641	4438.461538	4266.153846	3952.307692	1736.000000	1678.000000	84.174000	0.000000	0.000000	0.000000	0.000000	1	1	0	0	0	0	0	0	0	0	0	0	0	0	0	0	0	0	0	1	0.000	0.000
13.000000	4357.948718	4389.230769	4408.717949	3711.282051	4381.025641	4610.256410	4627.179487	4524.102564	4022.564103	4102.564103	4520.000000	4442.051282	4265.641026	3951.282051	1736.000000	1678.000000	84.182000	0.000000	0.000000	0.000000	0.000000	1	1	0	0	0	0	0	0	0	0	0	0	0	0	0	0	0	0	0	1	0.000	0.000
14.000000	4355.897436	4387.179487	4406.153846	3710.256410	4382.051282	4610.256410	4625.641026	4521.538462	4021.025641	4103.076923	4521.025641	4443.076923	4264.615385	3953.333333	1736.000000	1678.000000	84.189000	0.000000	0.000000	0.000000	0.000000	1	1	0	0	0	0	0	0	0	0	0	0	0	0	0	0	0	0	0	1	0.000	0.000
15.000000	4355.897436	4389.230769	4404.615385	3713.333333	4382.564103	4611.794872	4626.153846	4523.076923	4021.538462	4102.564103	4518.974359	4437.948718	4264.615385	3953.333333	1736.000000	1678.000000	84.202000	0.000000	0.000000	0.000000	0.000000	1	1	0	0	0	0	0	0	0	0	0	0	0	0	0	0	0	0	0	1	0.000	0.000
16.000000	4356.410256	4390.256410	4406.153846	3712.820513	4381.538462	4609.230769	4627.692308	4524.615385	4021.538462	4103.076923	4518.974359	4439.487179	4265.641026	3952.307692	1735.000000	1678.000000	84.205000	0.000000	0.000000	0.000000	0.000000	1	1	0	0	0	0	0	0	0	0	0	0	0	0	0	0	0	0	0	1	0.000	0.000
17.000000	4355.384615	4387.179487	4406.666667	3710.769231	4382.051282	4608.205128	4630.769231	4524.102564	4022.051282	4102.564103	4520.512821	4440.000000	4266.153846	3951.794872	1737.000000	1678.000000	84.213000	0.000000	0.000000	0.000000	0.000000	1	1	0	0	0	0	0	0	0	0	0	0	0	0	0	0	0	0	0	1	0.000	0.000
18.000000	4356.410256	4386.666667	4406.153846	3712.820513	4383.589744	4610.769231	4630.769231	4524.102564	4021.538462	4103.076923	4520.000000	4437.435897	4265.128205	3950.256410	1736.000000	1678.000000	84.221000	0.000000	0.000000	0.000000	0.000000	1	1	0	0	0	0	0	0	0	0	0	0	0	0	0	0	0	0	0	1	0.000	0.000
19.000000	4358.461538	4390.769231	4405.128205	3715.384615	4384.102564	4612.307692	4628.717949	4524.615385	4018.461538	4102.564103	4516.923077	4438.461538	4265.128205	3951.282051	1736.000000	1678.000000	84.237000	0.000000	0.000000	0.000000	0.000000	1	1	0	0	0	0	0	0	0	0	0	0	0	0	0	0	0	0	0	1	0.000	0.000
20.000000	4356.923077	4390.769231	4405.128205	3713.333333	4382.564103	4612.307692	4627.692308	4522.564103	4017.435897	4103.076923	4516.923077	4438.974359	4265.641026	3953.333333	1736.000000	1678.000000	84.237000	0.000000	0.000000	0.000000	0.000000	1	1	0	0	0	0	0	0	0	0	0	0	0	0	0	0	0	0	0	1	0.000	0.000
21.000000	4354.871795	4386.666667	4405.641026	3711.794872	4381.538462	4610.769231	4628.717949	4522.051282	4022.564103	4102.564103	4521.025641	4436.410256	4265.641026	3952.307692	1736.000000	1679.000000	84.244000	0.000000	0.000000	0.000000	0.000000	1	1	0	0	0	0	0	0	0	0	0	0	0	0	0	0	0	0	0	1	0.000	0.000
22.000000	4356.923077	4388.205128	4404.615385	3711.282051	4381.025641	4610.769231	4629.743590	4525.128205	4025.128205	4103.076923	4520.512821	4435.384615	4265.128205	3951.282051	1736.000000	1677.000000	84.252000	0.000000	0.000000	0.000000	0.000000	1	1	0	0	0	0	0	0	0	0	0	0	0	0	0	0	0	0	0	1	0.000	0.000
23.000000	4357.948718	4389.743590	4403.076923	3712.307692	4381.538462	4611.282051	4630.769231	4524.102564	4022.051282	4102.564103	4517.948718	4436.923077	4265.128205	3952.307692	1736.000000	1679.000000	84.266000	0.000000	0.000000	0.000000	0.000000	1	1	0	0	0	0	0	0	0	0	0	0	0	0	0	0	0	0	0	1	0.000	0.000
24.000000	4356.923077	4388.717949	4404.615385	3713.333333	4384.615385	4611.794872	4631.282051	4521.025641	4022.051282	4103.076923	4518.974359	4435.384615	4266.153846	3952.307692	1736.000000	1677.000000	84.268000	0.000000	0.000000	0.000000	0.000000	1	1	0	0	0	0	0	0	0	0	0	0	0	0	0	0	0	0	0	1	0.000	0.000
25.000000	4355.384615	4389.230769	4405.641026	3711.794872	4385.641026	4611.282051	4629.743590	4522.564103	4022.564103	4102.564103	4521.025641	4436.410256	4267.179487	3952.307692	1735.000000	1679.000000	84.275000	0.000000	0.000000	0.000000	0.000000	1	1	0	0	0	0	0	0	0	0	0	0	0	0	0	0	0	0	0	1	0.000	0.000
26.000000	4354.871795	4390.769231	4405.128205	3710.256410	4383.589744	4612.820513	4631.282051	4525.128205	4022.564103	4102.564103	4520.000000	4436.410256	4265.641026	3951.282051	1737.000000	1678.000000	84.283000	0.000000	0.000000	0.000000	0.000000	1	1	0	0	0	0	0	0	0	0	0	0	0	0	0	0	0	0	0	1	0.000	0.000
27.000000	4354.871795	4389.743590	4406.666667	3710.769231	4383.076923	4612.820513	4633.846154	4522.051282	4022.564103	4103.076923	4518.974359	4437.948718	4264.615385	3951.282051	1736.000000	1677.000000	84.297000	0.000000	0.000000	0.000000	0.000000	1	1	0	0	0	0	0	0	0	0	0	0	0	0	0	0	0	0	0	1	0.000	0.000
28.000000	4357.948718	4389.230769	4407.179487	3711.794872	4384.102564	4611.282051	4634.871795	4522.051282	4024.102564	4102.564103	4519.487179	4437.435897	4267.179487	3951.794872	1736.000000	1678.000000	84.299000	0.000000	0.000000	0.000000	0.000000	1	1	0	0	0	0	0	0	0	0	0	0	0	0	0	0	0	0	0	1	0.000	0.000
29.000000	4357.948718	4388.205128	4406.153846	3712.307692	4383.076923	4611.794872	4630.769231	4522.564103	4023.076923	4103.076923	4521.538462	4437.948718	4267.179487	3951.794872	1736.000000	1677.000000	84.307000	0.000000	0.000000	0.000000	0.000000	1	1	0	0	0	0	0	0	0	0	0	0	0	0	0	0	0	0	0	1	0.000	0.000
30.000000	4355.897436	4389.230769	4405.641026	3712.307692	4383.076923	4613.846154	4631.282051	4521.025641	4020.000000	4102.564103	4521.538462	4437.435897	4265.641026	3950.769231	1736.000000	1678.000000	84.315000	0.000000	0.000000	0.000000	0.000000	1	1	0	0	0	0	0	0	0	0	0	0	0	0	0	0	0	0	0	1	0.000	0.000
31.000000	4354.358974	4389.743590	4406.666667	3711.794872	4382.564103	4611.282051	4632.820513	4522.051282	4021.025641	4103.076923	4519.487179	4437.435897	4265.128205	3950.256410	1735.000000	1678.000000	84.327000	0.000000	0.000000	0.000000	0.000000	1	1	0	0	0	0	0	0	0	0	0	0	0	0	0	0	0	0	0	1	0.000	0.000
32.000000	4354.358974	4387.179487	4407.179487	3711.794872	4382.051282	4608.717949	4630.769231	4525.128205	4024.102564	4102.564103	4517.435897	4434.358974	4265.641026	3950.256410	1736.000000	1678.000000	84.330000	0.000000	0.000000	0.000000	0.000000	1	1	0	0	0	0	0	0	0	0	0	0	0	0	0	0	0	0	0	1	0.000	0.000
33.000000	4353.846154	4385.641026	4406.666667	3711.794872	4383.076923	4610.256410	4632.307692	4523.076923	4024.102564	4103.076923	4518.461538	4434.871795	4265.128205	3952.820513	1736.000000	1677.000000	84.338000	0.000000	0.000000	0.000000	0.000000	1	1	0	0	0	0	0	0	0	0	0	0	0	0	0	0	0	0	0	1	0.000	0.000
34.000000	4355.897436	4389.230769	4406.666667	3711.282051	4383.589744	4611.794872	4634.871795	4521.538462	4023.589744	4102.564103	4518.461538	4439.487179	4265.128205	3953.333333	1735.000000	1679.000000	84.346000	0.000000	0.000000	0.000000	0.000000	1	1	0	0	0	0	0	0	0	0	0	0	0	0	0	0	0	0	0	1	0.000	0.000
35.000000	4358.461538	4388.205128	4407.179487	3712.307692	4382.564103	4608.717949	4631.794872	4522.564103	4023.076923	4103.076923	4516.410256	4438.974359	4266.153846	3950.769231	1736.000000	1678.000000	84.360000	0.000000	0.000000	0.000000	0.000000	1	1	0	0	0	0	0	0	0	0	0	0	0	0	0	0	0	0	0	1	0.000	0.000
36.000000	4356.410256	4386.153846	4405.128205	3713.333333	4383.076923	4608.205128	4629.230769	4522.564103	4024.102564	4102.564103	4515.897436	4436.923077	4265.641026	3950.769231	1735.000000	1678.000000	84.360000	0.000000	0.000000	0.000000	0.000000	1	1	0	0	0	0	0	0	0	0	0	0	0	0	0	0	0	0	0	1	0.000	0.000
37.000000	4355.384615	4388.205128	4403.589744	3712.307692	4383.076923	4611.794872	4633.333333	4523.076923	4023.589744	4103.076923	4518.461538	4437.435897	4266.153846	3952.307692	1737.000000	1678.000000	84.370000	0.000000	0.000000	0.000000	0.000000	1	1	0	0	0	0	0	0	0	0	0	0	0	0	0	0	0	0	0	1	0.000	0.000
38.000000	4356.410256	4389.230769	4406.666667	3710.769231	4382.564103	4611.794872	4633.846154	4524.615385	4022.051282	4102.564103	4520.512821	4438.974359	4266.666667	3953.333333	1735.000000	1678.000000	84.377000	0.000000	0.000000	0.000000	0.000000	1	1	0	0	0	0	0	0	0	0	0	0	0	0	0	0	0	0	0	1	0.000	0.000
39.000000	4357.435897	4389.230769	4406.666667	3711.794872	4382.051282	4611.282051	4630.256410	4522.564103	4020.512821	4103.076923	4517.948718	4437.948718	4265.641026	3950.769231	1736.000000	1679.000000	84.391000	0.000000	0.000000	0.000000	0.000000	1	1	0	0	0	0	0	0	0	0	0	0	0	0	0	0	0	0	0	1	0.000	0.000
40.000000	4356.923077	4389.230769	4405.128205	3713.333333	4379.487179	4611.794872	4631.282051	4521.025641	4022.051282	4102.564103	4518.461538	4439.487179	4264.615385	3951.282051	1737.000000	1677.000000	84.393000	0.000000	0.000000	0.000000	0.000000	1	1	0	0	0	0	0	0	0	0	0	0	0	0	0	0	0	0	0	1	0.000	0.000
41.000000	4354.871795	4388.717949	4406.666667	3711.794872	4381.538462	4612.820513	4633.846154	4524.102564	4024.615385	4102.564103	4520.512821	4437.435897	4265.128205	3953.846154	1735.000000	1678.000000	84.401000	0.000000	0.000000	0.000000	0.000000	1	1	0	0	0	0	0	0	0	0	0	0	0	0	0	0	0	0	0	1	0.000	0.000
42.000000	4355.384615	4388.205128	4408.205128	3711.794872	4387.179487	4611.282051	4631.282051	4525.128205	4022.564103	4103.076923	4517.435897	4436.923077	4265.641026	3953.333333	1736.000000	1678.000000	84.408000	0.000000	0.000000	0.000000	0.000000	1	1	0	0	0	0	0	0	0	0	0	0	0	0	0	0	0	0	0	1	0.000	0.000
43.000000	4357.948718	4389.743590	4403.589744	3714.358974	4386.666667	4612.820513	4630.256410	4525.128205	4023.076923	4102.564103	4516.923077	4436.410256	4266.153846	3950.256410	1736.000000	1678.000000	84.422000	0.000000	0.000000	0.000000	0.000000	1	1	0	0	0	0	0	0	0	0	0	0	0	0	0	0	0	0	0	1	0.000	0.000
44.000000	4358.461538	4389.230769	4403.076923	3711.794872	4384.102564	4613.333333	4629.230769	4524.102564	4023.589744	4102.564103	4521.538462	4437.948718	4266.153846	3951.282051	1737.000000	1678.000000	84.424000	0.000000	0.000000	0.000000	0.000000	1	1	0	0	0	0	0	0	0	0	0	0	0	0	0	0	0	0	0	1	0.000	0.000
45.000000	4357.435897	4389.743590	4405.641026	3708.205128	4384.615385	4611.794872	4629.230769	4522.564103	4022.051282	4102.564103	4521.025641	4438.974359	4265.128205	3953.846154	1736.000000	1679.000000	84.432000	0.000000	0.000000	0.000000	0.000000	1	1	0	0	0	0	0	0	0	0	0	0	0	0	0	0	0	0	0	1	0.000	0.000
46.000000	4358.461538	4388.717949	4406.666667	3709.230769	4382.564103	4612.307692	4629.743590	4522.051282	4021.025641	4103.076923	4516.923077	4442.564103	4264.615385	3953.333333	1736.000000	1677.000000	84.440000	0.000000	0.000000	0.000000	0.000000	1	1	0	0	0	0	0	0	0	0	0	0	0	0	0	0	0	0	0	1	0.000	0.000
47.000000	4359.487179	4388.717949	4405.128205	3713.333333	4381.025641	4614.358974	4630.256410	4523.589744	4022.051282	4103.076923	4517.948718	4441.538462	4266.153846	3950.769231	1735.000000	1678.000000	84.454000	0.000000	0.000000	0.000000	0.000000	1	1	0	0	0	0	0	0	0	0	0	0	0	0	0	0	0	0	0	1	0.000	0.000
48.000000	4358.461538	4389.230769	4406.153846	3713.846154	4382.564103	4612.307692	4628.717949	4523.589744	4023.076923	4102.051282	4518.461538	4438.974359	4266.666667	3950.256410	1737.000000	1678.000000	84.455000	0.000000	0.000000	0.000000	0.000000	1	1	0	0	0	0	0	0	0	0	0	0	0	0	0	0	0	0	0	1	0.000	0.000
49.000000	4356.923077	4386.666667	4407.179487	3712.307692	4382.564103	4609.743590	4630.769231	4525.128205	4024.615385	4104.102564	4515.897436	4436.923077	4265.641026	3951.794872	1736.000000	1677.000000	84.462000	0.000000	0.000000	0.000000	0.000000	1	1	0	0	0	0	0	0	0	0	0	0	0	0	0	0	0	0	0	1	0.000	0.000
50.000000	4355.384615	4384.102564	4406.153846	3712.307692	4381.538462	4611.794872	4630.769231	4526.153846	4025.128205	4107.179487	4516.923077	4438.461538	4264.615385	3951.794872	1736.000000	1679.000000	84.470000	0.000000	0.000000	0.000000	0.000000	1	1	0	0	0	0	0	0	0	0	0	0	0	0	0	0	0	0	0	1	0.000	0.000
51.000000	4355.897436	4386.666667	4407.179487	3713.333333	4382.564103	4612.307692	4629.743590	4525.641026	4022.051282	4102.051282	4518.974359	4439.487179	4265.641026	3950.256410	1737.000000	1678.000000	84.483000	0.000000	0.000000	0.000000	0.000000	1	1	0	0	0	0	0	0	0	0	0	0	0	0	0	0	0	0	0	1	0.000	0.000
52.000000	4356.923077	4387.179487	4410.256410	3713.333333	4384.102564	4611.282051	4631.282051	4524.615385	4020.512821	4096.923077	4518.974359	4438.974359	4267.692308	3953.333333	1735.000000	1678.000000	84.486000	0.000000	0.000000	0.000000	0.000000	1	1	0	0	0	0	0	0	0	0	0	0	0	0	0	0	0	0	0	1	0.000	0.000
53.000000	4358.461538	4386.153846	4409.743590	3712.820513	4383.589744	4612.307692	4633.846154	4523.589744	4022.564103	4098.461538	4520.000000	4440.000000	4268.205128	3955.384615	1736.000000	1678.000000	84.494000	0.000000	0.000000	0.000000	0.000000	1	1	0	0	0	0	0	0	0	0	0	0	0	0	0	0	0	0	0	1	0.000	0.000
54.000000	4359.487179	4387.692308	4405.641026	3715.384615	4382.051282	4611.282051	4631.794872	4523.076923	4023.589744	4100.000000	4518.461538	4440.512821	4267.179487	3951.794872	1735.000000	1678.000000	84.502000	0.000000	0.000000	0.000000	0.000000	1	1	0	0	0	0	0	0	0	0	0	0	0	0	0	0	0	0	0	1	0.000	0.000
55.000000	4355.897436	4388.717949	4405.641026	3714.871795	4382.051282	4608.205128	4627.692308	4523.589744	4023.589744	4098.974359	4515.897436	4438.974359	4266.666667	3950.769231	1737.000000	1677.000000	84.515000	0.000000	0.000000	0.000000	0.000000	1	1	0	0	0	0	0	0	0	0	0	0	0	0	0	0	0	0	0	1	0.000	0.000
56.000000	4354.358974	4387.692308	4407.179487	3711.282051	4382.564103	4611.794872	4628.205128	4524.615385	4024.615385	4099.487179	4517.948718	4438.974359	4265.641026	3952.820513	1735.000000	1678.000000	84.518000	0.000000	0.000000	0.000000	0.000000	1	1	0	0	0	0	0	0	0	0	0	0	0	0	0	0	0	0	0	1	0.000	0.000
57.000000	4356.410256	4387.692308	4407.692308	3711.282051	4381.025641	4614.871795	4631.282051	4522.564103	4024.615385	4100.000000	4521.025641	4441.025641	4265.641026	3953.333333	1736.000000	1678.000000	84.526000	0.000000	0.000000	0.000000	0.000000	1	1	0	0	0	0	0	0	0	0	0	0	0	0	0	0	0	0	0	1	0.000	0.000
58.000000	4355.897436	4388.205128	4406.666667	3712.307692	4381.538462	4612.307692	4631.282051	4521.538462	4024.615385	4099.487179	4519.487179	4438.461538	4266.153846	3951.282051	1736.000000	1678.000000	84.535000	0.000000	0.000000	0.000000	0.000000	1	1	0	0	0	0	0	0	0	0	0	0	0	0	0	0	0	0	0	1	0.000	0.000
59.000000	4352.820513	4387.692308	4406.666667	3711.794872	4383.589744	4610.256410	4628.717949	4521.025641	4023.589744	4099.487179	4518.974359	4439.487179	4265.641026	3952.307692	1736.000000	1679.000000	84.549000	0.000000	0.000000	0.000000	0.000000	1	1	0	0	0	0	0	0	0	0	0	0	0	0	0	0	0	0	0	1	0.000	0.000
60.000000	4353.846154	4388.205128	4407.179487	3711.794872	4385.641026	4612.820513	4631.794872	4523.076923	4023.076923	4099.487179	4520.512821	4439.487179	4265.128205	3952.820513	1735.000000	1678.000000	84.549000	0.000000	0.000000	0.000000	0.000000	1	1	0	0	0	0	0	0	0	0	0	0	0	0	0	0	0	0	0	1	0.000	0.000
61.000000	4355.384615	4387.692308	4407.692308	3713.333333	4384.615385	4613.333333	4632.820513	4523.589744	4023.589744	4099.487179	4518.974359	4437.435897	4265.641026	3952.307692	1736.000000	1679.000000	84.557000	0.000000	0.000000	0.000000	0.000000	1	1	0	0	0	0	0	0	0	0	0	0	0	0	0	0	0	0	0	1	0.000	0.000
62.000000	4356.410256	4389.230769	4406.666667	3712.307692	4383.589744	4610.769231	4633.333333	4523.589744	4022.564103	4099.487179	4517.948718	4434.358974	4265.128205	3952.820513	1736.000000	1677.000000	84.565000	0.000000	0.000000	0.000000	0.000000	1	1	0	0	0	0	0	0	0	0	0	0	0	0	0	0	0	0	0	1	0.000	0.000
63.000000	4357.948718	4388.717949	4407.692308	3709.230769	4384.102564	4609.743590	4633.846154	4524.615385	4022.051282	4099.487179	4518.974359	4437.435897	4265.641026	3952.307692	1735.000000	1678.000000	84.578000	0.000000	0.000000	0.000000	0.000000	1	1	0	0	0	0	0	0	0	0	0	0	0	0	0	0	0	0	0	1	0.000	0.000
64.000000	4357.948718	4387.179487	4408.717949	3709.743590	4384.615385	4611.794872	4633.333333	4524.615385	4024.615385	4099.487179	4518.461538	4439.487179	4265.641026	3950.256410	1737.000000	1678.000000	84.580000	0.000000	0.000000	0.000000	0.000000	1	1	0	0	0	0	0	0	0	0	0	0	0	0	0	0	0	0	0	1	0.000	0.000
65.000000	4355.897436	4386.666667	4407.179487	3711.282051	4383.076923	4610.769231	4631.282051	4523.589744	4024.615385	4099.487179	4519.487179	4438.461538	4265.641026	3952.820513	1736.000000	1678.000000	84.588000	0.000000	0.000000	0.000000	0.000000	1	1	0	0	0	0	0	0	0	0	0	0	0	0	0	0	0	0	0	1	0.000	0.000
66.000000	4356.410256	4388.205128	4407.692308	3711.282051	4383.076923	4609.743590	4629.743590	4523.589744	4021.538462	4099.487179	4520.000000	4436.923077	4266.153846	3955.384615	1737.000000	1678.000000	84.596000	0.000000	0.000000	0.000000	0.000000	1	1	0	0	0	0	0	0	0	0	0	0	0	0	0	0	0	0	0	1	0.000	0.000
67.000000	4356.923077	4388.205128	4409.743590	3710.769231	4382.564103	4612.820513	4629.230769	4524.102564	4021.538462	4099.487179	4516.923077	4438.461538	4266.153846	3952.307692	1736.000000	1678.000000	84.610000	0.000000	0.000000	0.000000	0.000000	1	1	0	0	0	0	0	0	0	0	0	0	0	0	0	0	0	0	0	1	0.000	0.000
68.000000	4356.410256	4389.230769	4406.666667	3710.769231	4381.538462	4612.820513	4629.230769	4524.102564	4022.564103	4099.487179	4517.435897	4441.025641	4264.102564	3949.743590	1737.000000	1678.000000	84.612000	0.000000	0.000000	0.000000	0.000000	1	1	0	0	0	0	0	0	0	0	0	0	0	0	0	0	0	0	0	1	0.000	0.000
69.000000	4356.410256	4389.230769	4403.589744	3710.769231	4383.076923	4610.769231	4631.282051	4525.128205	4025.641026	4099.487179	4519.487179	4441.025641	4264.102564	3952.307692	1736.000000	1678.000000	84.620000	0.000000	0.000000	0.000000	0.000000	1	1	0	0	0	0	0	0	0	0	0	0	0	0	0	0	0	0	0	1	0.000	0.000
70.000000	4356.410256	4387.179487	4405.641026	3710.256410	4383.589744	4612.307692	4633.333333	4523.589744	4027.179487	4099.487179	4516.410256	4440.000000	4266.666667	3952.820513	1737.000000	1678.000000	84.627000	0.000000	0.000000	0.000000	0.000000	1	1	0	0	0	0	0	0	0	0	0	0	0	0	0	0	0	0	0	1	0.000	0.000
71.000000	4357.948718	4388.205128	4407.692308	3711.282051	4381.538462	4613.846154	4632.820513	4523.076923	4026.666667	4099.487179	4516.410256	4438.461538	4267.179487	3951.794872	1736.000000	1678.000000	84.641000	0.000000	0.000000	0.000000	0.000000	1	1	0	0	0	0	0	0	0	0	0	0	0	0	0	0	0	0	0	1	0.000	0.000
72.000000	4357.435897	4389.230769	4406.153846	3712.820513	4382.564103	4611.794872	4630.769231	4523.076923	4026.153846	4099.487179	4520.512821	4440.000000	4265.641026	3954.358974	1736.000000	1678.000000	84.643000	0.000000	0.000000	0.000000	0.000000	1	1	0	0	0	0	0	0	0	0	0	0	0	0	0	0	0	0	0	1	0.000	0.000
73.000000	4356.923077	4388.205128	4405.128205	3711.282051	4383.076923	4611.794872	4631.794872	4523.076923	4026.153846	4099.487179	4518.974359	4437.948718	4265.641026	3955.897436	1736.000000	1678.000000	84.651000	0.000000	0.000000	0.000000	0.000000	1	1	0	0	0	0	0	0	0	0	0	0	0	0	0	0	0	0	0	1	0.000	0.000
74.000000	4354.871795	4387.179487	4406.666667	3710.256410	4382.564103	4613.846154	4632.307692	4522.564103	4022.564103	4100.000000	4518.461538	4437.435897	4265.641026	3954.358974	1737.000000	1678.000000	84.659000	0.000000	0.000000	0.000000	0.000000	1	1	0	0	0	0	0	0	0	0	0	0	0	0	0	0	0	0	0	1	0.000	0.000
75.000000	4353.846154	4388.717949	4407.179487	3712.307692	4384.615385	4613.846154	4631.282051	4522.564103	4023.076923	4098.974359	4520.512821	4437.435897	4265.641026	3950.769231	1736.000000	1678.000000	84.671000	0.000000	0.000000	0.000000	0.000000	1	1	0	0	0	0	0	0	0	0	0	0	0	0	0	0	0	0	0	1	0.000	0.000
76.000000	4354.358974	4389.743590	4407.692308	3712.307692	4385.641026	4611.282051	4633.333333	4523.589744	4028.205128	4098.974359	4519.487179	4437.948718	4265.641026	3950.256410	1737.000000	1678.000000	84.674000	0.000000	0.000000	0.000000	0.000000	1	1	0	0	0	0	0	0	0	0	0	0	0	0	0	0	0	0	0	1	0.000	0.000
77.000000	4355.897436	4389.230769	4404.615385	3710.256410	4384.615385	4610.769231	4635.897436	4524.615385	4026.153846	4101.538462	4517.435897	4437.435897	4266.153846	3950.769231	1736.000000	1678.000000	84.682000	0.000000	0.000000	0.000000	0.000000	1	1	0	0	0	0	0	0	0	0	0	0	0	0	0	0	0	0	0	1	0.000	0.000
78.000000	4356.923077	4387.692308	4402.564103	3711.794872	4383.589744	4610.256410	4633.333333	4524.102564	4022.051282	4102.564103	4517.435897	4437.948718	4265.641026	3952.307692	1736.000000	1679.000000	84.690000	0.000000	0.000000	0.000000	0.000000	1	1	0	0	0	0	0	0	0	0	0	0	0	0	0	0	0	0	0	1	0.000	0.000
79.000000	4355.384615	4388.205128	4404.102564	3713.846154	4384.615385	4611.282051	4634.871795	4523.589744	4023.589744	4101.538462	4517.435897	4435.384615	4265.128205	3951.282051	1736.000000	1678.000000	84.704000	0.000000	0.000000	0.000000	0.000000	1	1	0	0	0	0	0	0	0	0	0	0	0	0	0	0	0	0	0	1	0.000	0.000
80.000000	4353.846154	4390.769231	4404.102564	3712.820513	4383.589744	4611.282051	4635.384615	4522.564103	4023.076923	4103.076923	4517.435897	4437.948718	4265.128205	3949.743590	1736.000000	1679.000000	84.706000	0.000000	0.000000	0.000000	0.000000	1	1	0	0	0	0	0	0	0	0	0	0	0	0	0	0	0	0	0	1	0.000	0.000
81.000000	4354.871795	4392.820513	4402.051282	3712.820513	4382.051282	4612.307692	4632.307692	4522.051282	4021.538462	4104.102564	4515.384615	4438.974359	4265.641026	3949.743590	1736.000000	1677.000000	84.713000	0.000000	0.000000	0.000000	0.000000	1	1	0	0	0	0	0	0	0	0	0	0	0	0	0	0	0	0	0	1	0.000	0.000
82.000000	4355.384615	4391.282051	4403.589744	3711.282051	4384.102564	4613.846154	4631.282051	4523.076923	4023.589744	4103.076923	4516.410256	4436.410256	4265.641026	3952.307692	1735.000000	1678.000000	84.721000	0.000000	0.000000	0.000000	0.000000	1	1	0	0	0	0	0	0	0	0	0	0	0	0	0	0	0	0	0	1	0.000	0.000
83.000000	4355.384615	4388.717949	4405.641026	3711.282051	4388.205128	4612.820513	4635.897436	4524.102564	4024.615385	4103.589744	4520.512821	4435.897436	4265.128205	3953.333333	1737.000000	1677.000000	84.735000	0.000000	0.000000	0.000000	0.000000	1	1	0	0	0	0	0	0	0	0	0	0	0	0	0	0	0	0	0	1	0.000	0.000
84.000000	4355.384615	4389.230769	4404.615385	3714.358974	4385.641026	4613.333333	4636.410256	4521.538462	4023.589744	4104.102564	4518.461538	4436.410256	4266.153846	3950.769231	1736.000000	1678.000000	84.737000	0.000000	0.000000	0.000000	0.000000	1	1	0	0	0	0	0	0	0	0	0	0	0	0	0	0	0	0	0	1	0.000	0.000
85.000000	4355.897436	4390.769231	4405.128205	3714.358974	4382.051282	4614.358974	4633.846154	4522.051282	4024.102564	4102.564103	4514.871795	4436.410256	4267.179487	3949.743590	1736.000000	1678.000000	84.745000	0.000000	0.000000	0.000000	0.000000	1	1	0	0	0	0	0	0	0	0	0	0	0	0	0	0	0	0	0	1	0.000	0.000
86.000000	4357.948718	4390.256410	4406.666667	3711.282051	4384.615385	4613.846154	4632.307692	4525.641026	4024.102564	4102.564103	4515.384615	4437.435897	4266.666667	3952.820513	1736.000000	1678.000000	84.752000	0.000000	0.000000	0.000000	0.000000	1	1	0	0	0	0	0	0	0	0	0	0	0	0	0	0	0	0	0	1	0.000	0.000
87.000000	4357.948718	4388.205128	4406.153846	3712.820513	4386.153846	4610.769231	4633.333333	4525.128205	4022.564103	4103.076923	4517.435897	4437.435897	4265.128205	3953.846154	1737.000000	1678.000000	84.766000	0.000000	0.000000	0.000000	0.000000	1	1	0	0	0	0	0	0	0	0	0	0	0	0	0	0	0	0	0	1	0.000	0.000
88.000000	4355.897436	4388.717949	4402.564103	3715.384615	4382.564103	4613.333333	4634.358974	4524.615385	4023.076923	4102.564103	4516.923077	4435.384615	4264.615385	3949.743590	1735.000000	1678.000000	84.768000	0.000000	0.000000	0.000000	0.000000	1	1	0	0	0	0	0	0	0	0	0	0	0	0	0	0	0	0	0	1	0.000	0.000
89.000000	4355.384615	4389.230769	4402.051282	3712.820513	4381.025641	4613.846154	4634.871795	4524.102564	4024.102564	4102.564103	4516.923077	4436.923077	4266.153846	3949.743590	1737.000000	1679.000000	84.776000	0.000000	0.000000	0.000000	0.000000	1	1	0	0	0	0	0	0	0	0	0	0	0	0	0	0	0	0	0	1	0.000	0.000
90.000000	4355.384615	4389.743590	4402.564103	3710.769231	4384.102564	4613.333333	4638.461538	4524.615385	4025.128205	4103.076923	4516.410256	4434.871795	4265.641026	3954.358974	1736.000000	1677.000000	84.784000	0.000000	0.000000	0.000000	0.000000	1	1	0	0	0	0	0	0	0	0	0	0	0	0	0	0	0	0	0	1	0.000	0.000
91.000000	4353.846154	4388.717949	4405.641026	3713.333333	4385.641026	4612.820513	4636.923077	4523.589744	4026.666667	4104.102564	4517.948718	4434.871795	4264.615385	3954.358974	1736.000000	1679.000000	84.795000	0.000000	0.000000	0.000000	0.000000	1	1	0	0	0	0	0	0	0	0	0	0	0	0	0	0	0	0	0	1	0.000	0.000
92.000000	4357.435897	4389.230769	4406.666667	3715.384615	4384.102564	4613.333333	4634.871795	4524.102564	4028.205128	4104.615385	4518.461538	4434.871795	4265.128205	3952.307692	1736.000000	1677.000000	84.798000	0.000000	0.000000	0.000000	0.000000	1	1	0	0	0	0	0	0	0	0	0	0	0	0	0	0	0	0	0	1	0.000	0.000
93.000000	4358.461538	4389.743590	4406.153846	3712.307692	4382.564103	4615.384615	4634.871795	4524.615385	4025.641026	4104.615385	4516.923077	4437.435897	4266.153846	3951.794872	1736.000000	1678.000000	84.806000	0.000000	0.000000	0.000000	0.000000	1	1	0	0	0	0	0	0	0	0	0	0	0	0	0	0	0	0	0	1	0.000	0.000
94.000000	4352.820513	4390.256410	4407.179487	3710.256410	4382.564103	4615.384615	4633.846154	4524.615385	4023.076923	4104.102564	4517.948718	4437.948718	4265.641026	3951.282051	1737.000000	1678.000000	84.814000	0.000000	0.000000	0.000000	0.000000	1	1	0	0	0	0	0	0	0	0	0	0	0	0	0	0	0	0	0	1	0.000	0.000
95.000000	4353.333333	4388.205128	4409.230769	3711.282051	4382.564103	4612.307692	4632.820513	4523.589744	4021.538462	4104.615385	4518.461538	4436.923077	4265.641026	3951.794872	1736.000000	1678.000000	84.828000	0.000000	0.000000	0.000000	0.000000	1	1	0	0	0	0	0	0	0	0	0	0	0	0	0	0	0	0	0	1	0.000	0.000
96.000000	4357.948718	4388.205128	4407.692308	3710.769231	4383.589744	4612.820513	4634.358974	4523.076923	4023.589744	4104.102564	4517.435897	4434.358974	4265.641026	3950.256410	1736.000000	1678.000000	84.830000	0.000000	0.000000	0.000000	0.000000	1	1	0	0	0	0	0	0	0	0	0	0	0	0	0	0	0	0	0	1	0.000	0.000
97.000000	4356.410256	4389.230769	4403.589744	3710.256410	4383.589744	4614.871795	4635.384615	4522.564103	4026.153846	4104.615385	4517.948718	4437.435897	4266.153846	3948.717949	1736.000000	1678.000000	84.838000	0.000000	0.000000	0.000000	0.000000	1	1	0	0	0	0	0	0	0	0	0	0	0	0	0	0	0	0	0	1	0.000	0.000
98.000000	4355.384615	4387.692308	4404.615385	3712.307692	4385.128205	4612.820513	4634.358974	4522.051282	4024.102564	4104.102564	4517.948718	4438.461538	4266.153846	3951.794872	1736.000000	1678.000000	84.846000	0.000000	0.000000	0.000000	0.000000	1	1	0	0	0	0	0	0	0	0	0	0	0	0	0	0	0	0	0	1	0.000	0.000
99.000000	4357.435897	4385.128205	4408.717949	3713.846154	4385.641026	4610.256410	4633.333333	4523.589744	4021.025641	4104.615385	4517.435897	4435.897436	4265.128205	3952.820513	1736.000000	1678.000000	84.860000	0.000000	0.000000	0.000000	0.000000	1	1	0	0	0	0	0	0	0	0	0	0	0	0	0	0	0	0	0	1	0.000	0.000
100.000000	4357.948718	4386.153846	4409.230769	3712.307692	4383.076923	4611.282051	4633.333333	4523.589744	4022.564103	4104.615385	4518.461538	4436.923077	4265.128205	3951.282051	1737.000000	1678.000000	84.862000	0.000000	0.000000	0.000000	0.000000	1	1	0	0	0	0	0	0	0	0	0	0	0	0	0	0	0	0	0	1	0.000	0.000
101.000000	4356.923077	4388.205128	4406.666667	3710.256410	4382.051282	4612.307692	4634.871795	4522.564103	4024.102564	4104.102564	4518.461538	4440.512821	4265.641026	3951.794872	1736.000000	1677.000000	84.871000	0.000000	0.000000	0.000000	0.000000	1	1	0	0	0	0	0	0	0	0	0	0	0	0	0	0	0	0	0	1	0.000	0.000
102.000000	4357.435897	4386.153846	4405.641026	3712.820513	4384.102564	4613.846154	4634.358974	4524.615385	4023.076923	4104.615385	4517.435897	4441.538462	4265.641026	3953.333333	1736.000000	1679.000000	84.878000	0.000000	0.000000	0.000000	0.000000	1	1	0	0	0	0	0	0	0	0	0	0	0	0	0	0	0	0	0	1	0.000	0.000
103.000000	4356.923077	4385.128205	4406.666667	3714.358974	4383.076923	4614.358974	4633.846154	4526.666667	4024.615385	4104.102564	4517.435897	4438.461538	4265.641026	3952.820513	1737.000000	1677.000000	84.891000	0.000000	0.000000	0.000000	0.000000	1	1	0	0	0	0	0	0	0	0	0	0	0	0	0	0	0	0	0	1	0.000	0.000
104.000000	4355.384615	4386.666667	4406.666667	3711.282051	4379.487179	4613.333333	4633.846154	4523.589744	4025.641026	4100.512821	4518.974359	4437.948718	4265.641026	3952.307692	1736.000000	1679.000000	84.893000	0.000000	0.000000	0.000000	0.000000	1	1	0	0	0	0	0	0	0	0	0	0	0	0	0	0	0	0	0	1	0.000	0.000
105.000000	4355.384615	4388.717949	4405.128205	3709.743590	4382.051282	4612.820513	4632.307692	4522.564103	4023.076923	4097.435897	4518.974359	4437.948718	4265.641026	3950.769231	1737.000000	1678.000000	84.901000	0.000000	0.000000	0.000000	0.000000	1	1	0	0	0	0	0	0	0	0	0	0	0	0	0	0	0	0	0	1	0.000	0.000
106.000000	4354.871795	4388.717949	4406.153846	3711.282051	4383.589744	4614.358974	4631.282051	4523.589744	4022.564103	4098.974359	4517.435897	4437.948718	4266.666667	3950.769231	1736.000000	1677.000000	84.909000	0.000000	0.000000	0.000000	0.000000	1	1	0	0	0	0	0	0	0	0	0	0	0	0	0	0	0	0	0	1	0.000	0.000
107.000000	4355.897436	4387.692308	4407.179487	3710.769231	4382.564103	4613.846154	4634.358974	4523.076923	4026.153846	4103.589744	4517.948718	4437.948718	4266.666667	3952.820513	1737.000000	1679.000000	84.922000	0.000000	0.000000	0.000000	0.000000	1	1	0	0	0	0	0	0	0	0	0	0	0	0	0	0	0	0	0	1	0.000	0.000
108.000000	4354.871795	4386.666667	4406.666667	3710.256410	4382.564103	4609.743590	4633.846154	4522.564103	4026.153846	4105.128205	4520.512821	4441.025641	4266.153846	3952.820513	1736.000000	1678.000000	84.925000	0.000000	0.000000	0.000000	0.000000	1	1	0	0	0	0	0	0	0	0	0	0	0	0	0	0	0	0	0	1	0.000	0.000
