Counter	AF3	F7	F3	FC5	T7	P7	O1	O2	P8	T8	FC6	F4	F8	AF4	GyroX	GyroY	Timestamp	FUNC_ID	FUNC_VALUE	MARKER	SYNC_SIGNAL	CMS_Q	DRL_Q	AF3_Q	F7_Q	F3_Q	FC5_Q	T7_Q	P7_Q	O1_Q	O2_Q	P8_Q	T8_Q	FC6_Q	F4_Q	F8_Q	AF4_Q	Blink	LeftWink	RightWink	EyesOpen	LeftEyeLid	RightEyelid
14.000000	4355.384615	4387.179487	4406.666667	3714.358974	4383.076923	4612.307692	4628.717949	4511.282051	4015.897436	4100.512821	4517.435897	4437.435897	4261.025641	3949.743590	1736.000000	1677.000000	165.901000	0.000000	0.000000	0.000000	0.000000	1	1	0	0	0	0	0	0	0	0	0	0	0	0	0	0	0	0	0	1	0.000	0.000
15.000000	4356.923077	4386.666667	4406.666667	3713.846154	4383.076923	4612.307692	4627.179487	4510.769231	4017.948718	4100.000000	4513.846154	4434.871795	4260.000000	3947.692308	1737.000000	1678.000000	165.902000	0.000000	0.000000	0.000000	0.000000	1	1	0	0	0	0	0	0	0	0	0	0	0	0	0	0	0	0	0	1	0.000	0.000
16.000000	4356.410256	4385.128205	4403.076923	3711.794872	4384.615385	4610.256410	4629.230769	4507.692308	4015.897436	4100.000000	4513.846154	4432.820513	4265.128205	3947.692308	1736.000000	1678.000000	165.910000	0.000000	0.000000	0.000000	0.000000	1	1	0	0	0	0	0	0	0	0	0	0	0	0	0	0	0	0	0	1	0.000	0.000
17.000000	4355.384615	4384.615385	4403.589744	3711.794872	4386.153846	4612.820513	4631.794872	4509.743590	4016.410256	4103.589744	4518.461538	4434.871795	4265.128205	3949.230769	1736.000000	1679.000000	165.919000	0.000000	0.000000	0.000000	0.000000	1	1	0	0	0	0	0	0	0	0	0	0	0	0	0	0	0	0	0	1	0.000	0.000
18.000000	4354.871795	4385.641026	4408.717949	3714.358974	4386.153846	4614.871795	4629.743590	4524.102564	4027.179487	4113.846154	4523.076923	4442.564103	4266.666667	3955.897436	1736.000000	1678.000000	165.932000	0.000000	0.000000	0.000000	0.000000	1	1	0	0	0	0	0	0	0	0	0	0	0	0	0	0	0	0	0	1	0.000	0.000
19.000000	4354.358974	4384.615385	4407.179487	3715.384615	4386.153846	4612.820513	4630.256410	4518.974359	4024.615385	4107.179487	4517.435897	4436.923077	4267.179487	3953.846154	1735.000000	1678.000000	165.935000	0.000000	0.000000	0.000000	0.000000	1	1	0	0	0	0	0	0	0	0	0	0	0	0	0	0	0	0	0	1	0.000	0.000
20.000000	4356.923077	4383.589744	4404.615385	3713.333333	4385.641026	4611.282051	4631.282051	4527.179487	4031.282051	4115.384615	4520.512821	4441.538462	4272.820513	3958.974359	1736.000000	1679.000000	165.942000	0.000000	0.000000	0.000000	0.000000	1	1	0	0	0	0	0	0	0	0	0	0	0	0	0	0	0	0	0	1	0.000	0.000
21.000000	4358.461538	4387.692308	4403.589744	3710.256410	4384.615385	4613.333333	4630.256410	4530.769231	4033.333333	4115.897436	4522.564103	4443.589744	4268.717949	3959.487179	1736.000000	1677.000000	165.951000	0.000000	0.000000	0.000000	0.000000	1	1	0	0	0	0	0	0	0	0	0	0	0	0	0	0	0	0	0	1	0.000	0.000
22.000000	4356.923077	4390.256410	4408.205128	3711.794872	4385.128205	4611.794872	4630.769231	4529.743590	4033.846154	4111.282051	4522.564103	4443.589744	4266.666667	3958.461538	1736.000000	1679.000000	165.965000	0.000000	0.000000	0.000000	0.000000	1	1	0	0	0	0	0	0	0	0	0	0	0	0	0	0	0	0	0	1	0.000	0.000
23.000000	4356.410256	4388.717949	4409.230769	3715.897436	4385.641026	4610.769231	4632.820513	4528.717949	4034.358974	4109.230769	4521.025641	4441.538462	4269.743590	3954.871795	1737.000000	1677.000000	165.966000	0.000000	0.000000	0.000000	0.000000	1	1	0	0	0	0	0	0	0	0	0	0	0	0	0	0	0	0	0	1	0.000	0.000
24.000000	4357.435897	4387.179487	4405.128205	3714.871795	4385.128205	4612.307692	4631.794872	4524.615385	4029.743590	4112.307692	4519.487179	4442.564103	4270.769231	3954.358974	1736.000000	1678.000000	165.975000	0.000000	0.000000	0.000000	0.000000	1	1	0	0	0	0	0	0	0	0	0	0	0	0	0	0	0	0	0	1	0.000	0.000
25.000000	4358.461538	4386.666667	4405.641026	3712.307692	4385.641026	4612.820513	4628.717949	4522.564103	4028.717949	4112.820513	4519.487179	4439.487179	4267.692308	3959.487179	1736.000000	1678.000000	165.981000	0.000000	0.000000	0.000000	0.000000	1	1	0	0	0	0	0	0	0	0	0	0	0	0	0	0	0	0	0	1	0.000	0.000
26.000000	4357.435897	4386.153846	4406.153846	3712.820513	4384.615385	4611.282051	4627.179487	4513.333333	4023.076923	4102.051282	4516.923077	4432.820513	4260.512821	3954.358974	1737.000000	1678.000000	165.996000	0.000000	0.000000	0.000000	0.000000	1	1	0	0	0	0	0	0	0	0	0	0	0	0	0	0	0	0	0	1	0.000	0.000
27.000000	4356.923077	4387.179487	4404.615385	3712.307692	4384.102564	4611.794872	4629.743590	4512.820513	4019.487179	4100.000000	4515.384615	4434.871795	4261.025641	3947.692308	1737.000000	1678.000000	165.997000	0.000000	0.000000	0.000000	0.000000	1	1	0	0	0	0	0	0	0	0	0	0	0	0	0	0	0	0	0	1	0.000	0.000
28.000000	4356.410256	4387.692308	4403.076923	3711.282051	4385.128205	4611.794872	4631.794872	4515.384615	4017.948718	4103.589744	4515.897436	4435.897436	4263.589744	3949.743590	1736.000000	1679.000000	166.006000	0.000000	0.000000	0.000000	0.000000	1	1	0	0	0	0	0	0	0	0	0	0	0	0	0	0	0	0	0	1	0.000	0.000
29.000000	4355.384615	4386.153846	4403.589744	3710.769231	4384.615385	4612.307692	4630.256410	4507.692308	4014.358974	4100.000000	4515.384615	4431.794872	4260.000000	3951.282051	1737.000000	1678.000000	166.014000	0.000000	0.000000	0.000000	0.000000	1	1	0	0	0	0	0	0	0	0	0	0	0	0	0	0	0	0	0	1	0.000	0.000
30.000000	4354.871795	4386.153846	4406.153846	3710.769231	4383.589744	4613.846154	4628.717949	4505.128205	4015.384615	4099.487179	4515.384615	4435.384615	4260.000000	3949.743590	1736.000000	1678.000000	166.026000	0.000000	0.000000	0.000000	0.000000	1	1	0	0	0	0	0	0	0	0	0	0	0	0	0	0	0	0	0	1	0.000	0.000
31.000000	4356.923077	4386.153846	4407.179487	3712.307692	4384.102564	4613.333333	4630.256410	4504.102564	4013.333333	4096.923077	4513.333333	4436.410256	4260.512821	3949.230769	1736.000000	1678.000000	166.029000	0.000000	0.000000	0.000000	0.000000	1	1	0	0	0	0	0	0	0	0	0	0	0	0	0	0	0	0	0	1	0.000	0.000
32.000000	4358.974359	4386.153846	4403.589744	3713.846154	4384.615385	4612.820513	4632.820513	4504.615385	4010.769231	4097.948718	4511.794872	4431.282051	4261.025641	3950.256410	1736.000000	1677.000000	166.037000	0.000000	0.000000	0.000000	0.000000	1	1	0	0	0	0	0	0	0	0	0	0	0	0	0	0	0	0	0	1	0.000	0.000
33.000000	4358.461538	4387.179487	4403.589744	3712.307692	4383.589744	4613.333333	4630.256410	4508.717949	4015.384615	4101.538462	4515.897436	4436.410256	4264.615385	3949.743590	1737.000000	1679.000000	166.046000	0.000000	0.000000	0.000000	0.000000	1	1	0	0	0	0	0	0	0	0	0	0	0	0	0	0	0	0	0	1	0.000	0.000
34.000000	4356.923077	4387.179487	4403.076923	3711.282051	4385.641026	4612.820513	4628.717949	4510.256410	4015.384615	4101.538462	4517.948718	4437.948718	4266.153846	3949.230769	1737.000000	1677.000000	166.059000	0.000000	0.000000	0.000000	0.000000	1	1	0	0	0	0	0	0	0	0	0	0	0	0	0	0	0	0	0	1	0.000	0.000
35.000000	4355.384615	4386.666667	4403.076923	3711.794872	4386.153846	4611.794872	4630.769231	4524.615385	4024.615385	4111.794872	4523.589744	4440.000000	4268.717949	3956.923077	1736.000000	1678.000000	166.062000	0.000000	0.000000	0.000000	0.000000	1	1	0	0	0	0	0	0	0	0	0	0	0	0	0	0	0	0	0	1	0.000	0.000
36.000000	4355.897436	4386.153846	4403.076923	3709.743590	4383.589744	4613.846154	4631.794872	4524.102564	4028.205128	4109.743590	4522.564103	4436.923077	4266.153846	3951.794872	1737.000000	1679.000000	166.067000	0.000000	0.000000	0.000000	0.000000	1	1	0	0	0	0	0	0	0	0	0	0	0	0	0	0	0	0	0	1	0.000	0.000
37.000000	4358.974359	4386.666667	4407.692308	3710.769231	4383.076923	4612.820513	4628.205128	4525.641026	4031.794872	4111.794872	4522.564103	4440.512821	4270.769231	3954.358974	1736.000000	1678.000000	166.075000	0.000000	0.000000	0.000000	0.000000	1	1	0	0	0	0	0	0	0	0	0	0	0	0	0	0	0	0	0	1	0.000	0.000
38.000000	4358.974359	4388.205128	4407.692308	3715.384615	4385.641026	4611.794872	4627.692308	4525.641026	4030.769231	4112.820513	4522.564103	4440.512821	4272.307692	3960.512821	1737.000000	1678.000000	166.088000	0.000000	0.000000	0.000000	0.000000	1	1	0	0	0	0	0	0	0	0	0	0	0	0	0	0	0	0	0	1	0.000	0.000
39.000000	4355.897436	4388.205128	4405.128205	3713.333333	4385.641026	4613.846154	4630.256410	4526.153846	4030.769231	4114.358974	4523.076923	4441.538462	4270.769231	3960.000000	1736.000000	1678.000000	166.092000	0.000000	0.000000	0.000000	0.000000	1	1	0	0	0	0	0	0	0	0	0	0	0	0	0	0	0	0	0	1	0.000	0.000
40.000000	4355.384615	4389.230769	4405.128205	3710.256410	4383.076923	4614.871795	4631.282051	4522.051282	4029.743590	4107.179487	4517.948718	4439.487179	4266.666667	3953.846154	1737.000000	1678.000000	166.099000	0.000000	0.000000	0.000000	0.000000	1	1	0	0	0	0	0	0	0	0	0	0	0	0	0	0	0	0	0	1	0.000	0.000
41.000000	4354.871795	4389.230769	4404.615385	3712.307692	4382.051282	4612.820513	4630.256410	4511.794872	4023.076923	4097.948718	4514.358974	4435.897436	4263.076923	3952.820513	1735.000000	1678.000000	166.106000	0.000000	0.000000	0.000000	0.000000	1	1	0	0	0	0	0	0	0	0	0	0	0	0	0	0	0	0	0	1	0.000	0.000
42.000000	4354.871795	4389.743590	4404.615385	3714.871795	4385.128205	4612.820513	4630.256410	4514.871795	4023.589744	4102.564103	4517.435897	4436.410256	4265.641026	3956.410256	1737.000000	1678.000000	166.118000	0.000000	0.000000	0.000000	0.000000	1	1	0	0	0	0	0	0	0	0	0	0	0	0	0	0	0	0	0	1	0.000	0.000
43.000000	4355.384615	4387.692308	4403.589744	3712.820513	4384.615385	4612.820513	4630.256410	4517.435897	4021.025641	4103.076923	4516.410256	4438.461538	4265.128205	3952.820513	1737.000000	1677.000000	166.122000	0.000000	0.000000	0.000000	0.000000	1	1	0	0	0	0	0	0	0	0	0	0	0	0	0	0	0	0	0	1	0.000	0.000
44.000000	4354.871795	4387.179487	4401.538462	3712.307692	4382.564103	4611.794872	4628.717949	4507.692308	4013.846154	4097.948718	4512.307692	4434.358974	4259.487179	3946.153846	1736.000000	1679.000000	166.130000	0.000000	0.000000	0.000000	0.000000	1	1	0	0	0	0	0	0	0	0	0	0	0	0	0	0	0	0	0	1	0.000	0.000
45.000000	4355.897436	4388.205128	4404.102564	3713.333333	4385.641026	4610.769231	4628.205128	4504.102564	4014.871795	4098.974359	4513.333333	4430.769231	4259.487179	3944.615385	1737.000000	1677.000000	166.138000	0.000000	0.000000	0.000000	0.000000	1	1	0	0	0	0	0	0	0	0	0	0	0	0	0	0	0	0	0	1	0.000	0.000
46.000000	4358.974359	4388.205128	4406.666667	3713.333333	4387.692308	4610.256410	4629.230769	4508.205128	4015.897436	4099.487179	4515.384615	4432.820513	4263.076923	3945.641026	1736.000000	1678.000000	166.152000	0.000000	0.000000	0.000000	0.000000	1	1	0	0	0	0	0	0	0	0	0	0	0	0	0	0	0	0	0	1	0.000	0.000
47.000000	4358.974359	4386.153846	4405.128205	3713.333333	4383.589744	4611.794872	4629.743590	4508.717949	4011.282051	4096.923077	4514.358974	4433.846154	4263.589744	3947.179487	1736.000000	1678.000000	166.152000	0.000000	0.000000	0.000000	0.000000	1	1	0	0	0	0	0	0	0	0	0	0	0	0	0	0	0	0	0	1	0.000	0.000
48.000000	4356.410256	4384.102564	4402.564103	3712.820513	4381.025641	4612.820513	4628.717949	4507.692308	4010.769231	4097.948718	4513.846154	4432.820513	4261.538462	3947.692308	1736.000000	1678.000000	166.161000	0.000000	0.000000	0.000000	0.000000	1	1	0	0	0	0	0	0	0	0	0	0	0	0	0	0	0	0	0	1	0.000	0.000
49.000000	4354.871795	4386.666667	4404.102564	3712.820513	4384.102564	4610.769231	4630.256410	4510.769231	4017.435897	4102.564103	4517.435897	4434.358974	4262.051282	3949.743590	1737.000000	1678.000000	166.169000	0.000000	0.000000	0.000000	0.000000	1	1	0	0	0	0	0	0	0	0	0	0	0	0	0	0	0	0	0	1	0.000	0.000
50.000000	4356.410256	4387.179487	4407.179487	3714.358974	4384.102564	4610.256410	4633.333333	4519.487179	4025.641026	4109.743590	4523.589744	4442.051282	4270.256410	3957.948718	1736.000000	1678.000000	166.181000	0.000000	0.000000	0.000000	0.000000	1	1	0	0	0	0	0	0	0	0	0	0	0	0	0	0	0	0	0	1	0.000	0.000
51.000000	4358.974359	4385.641026	4406.153846	3713.846154	4383.589744	4611.282051	4633.846154	4517.435897	4022.051282	4106.153846	4520.000000	4436.923077	4269.230769	3956.410256	1736.000000	1678.000000	166.185000	0.000000	0.000000	0.000000	0.000000	1	1	0	0	0	0	0	0	0	0	0	0	0	0	0	0	0	0	0	1	0.000	0.000
52.000000	4358.461538	4386.666667	4407.179487	3712.820513	4386.666667	4609.230769	4631.794872	4530.256410	4030.769231	4113.333333	4522.051282	4443.076923	4269.743590	3959.487179	1737.000000	1678.000000	166.193000	0.000000	0.000000	0.000000	0.000000	1	1	0	0	0	0	0	0	0	0	0	0	0	0	0	0	0	0	0	1	0.000	0.000
53.000000	4356.410256	4389.230769	4406.153846	3712.820513	4387.692308	4611.282051	4631.794872	4534.871795	4035.897436	4115.897436	4521.538462	4445.641026	4271.794872	3960.512821	1737.000000	1678.000000	166.200000	0.000000	0.000000	0.000000	0.000000	1	1	0	0	0	0	0	0	0	0	0	0	0	0	0	0	0	0	0	1	0.000	0.000
54.000000	4355.384615	4387.179487	4407.179487	3712.307692	4384.102564	4615.384615	4631.282051	4530.256410	4034.358974	4115.897436	4518.974359	4443.589744	4273.846154	3960.512821	1736.000000	1677.000000	166.213000	0.000000	0.000000	0.000000	0.000000	1	1	0	0	0	0	0	0	0	0	0	0	0	0	0	0	0	0	0	1	0.000	0.000
55.000000	4355.897436	4385.641026	4407.179487	3712.820513	4383.589744	4613.333333	4630.256410	4524.102564	4032.307692	4111.794872	4518.974359	4438.461538	4267.692308	3956.410256	1736.000000	1679.000000	166.216000	0.000000	0.000000	0.000000	0.000000	1	1	0	0	0	0	0	0	0	0	0	0	0	0	0	0	0	0	0	1	0.000	0.000
56.000000	4355.384615	4387.692308	4406.666667	3714.871795	4384.102564	4611.282051	4630.769231	4521.025641	4030.769231	4107.692308	4520.512821	4436.410256	4263.589744	3954.358974	1737.000000	1677.000000	166.225000	0.000000	0.000000	0.000000	0.000000	1	1	0	0	0	0	0	0	0	0	0	0	0	0	0	0	0	0	0	1	0.000	0.000
57.000000	4356.410256	4387.692308	4406.666667	3714.871795	4384.102564	4614.358974	4631.794872	4524.102564	4032.307692	4109.230769	4518.461538	4436.410256	4265.128205	3954.871795	1736.000000	1678.000000	166.233000	0.000000	0.000000	0.000000	0.000000	1	1	0	0	0	0	0	0	0	0	0	0	0	0	0	0	0	0	0	1	0.000	0.000
58.000000	4356.410256	4383.589744	4406.153846	3712.307692	4382.564103	4612.820513	4630.769231	4518.461538	4027.179487	4105.641026	4514.358974	4437.435897	4264.102564	3951.282051	1737.000000	1679.000000	166.245000	0.000000	0.000000	0.000000	0.000000	1	1	0	0	0	0	0	0	0	0	0	0	0	0	0	0	0	0	0	1	0.000	0.000
59.000000	4355.384615	4383.589744	4406.666667	3712.307692	4381.538462	4610.256410	4629.230769	4511.794872	4021.025641	4100.000000	4514.871795	4437.435897	4262.051282	3949.230769	1735.000000	1677.000000	166.248000	0.000000	0.000000	0.000000	0.000000	1	1	0	0	0	0	0	0	0	0	0	0	0	0	0	0	0	0	0	1	0.000	0.000
60.000000	4356.410256	4385.641026	4405.641026	3712.820513	4382.051282	4612.820513	4628.717949	4509.230769	4016.923077	4099.487179	4514.358974	4432.307692	4261.025641	3949.230769	1737.000000	1678.000000	166.255000	0.000000	0.000000	0.000000	0.000000	1	1	0	0	0	0	0	0	0	0	0	0	0	0	0	0	0	0	0	1	0.000	0.000
61.000000	4357.435897	4386.153846	4403.076923	3711.282051	4384.615385	4612.820513	4629.230769	4503.076923	4012.820513	4099.487179	4512.820513	4429.743590	4260.512821	3947.179487	1736.000000	1677.000000	166.263000	0.000000	0.000000	0.000000	0.000000	1	1	0	0	0	0	0	0	0	0	0	0	0	0	0	0	0	0	0	1	0.000	0.000
62.000000	4354.871795	4386.153846	4402.051282	3711.794872	4385.641026	4608.717949	4629.230769	4498.461538	4007.692308	4094.358974	4513.846154	4428.717949	4260.512821	3945.128205	1737.000000	1678.000000	166.276000	0.000000	0.000000	0.000000	0.000000	1	1	0	0	0	0	0	0	0	0	0	0	0	0	0	0	0	0	0	1	0.000	0.000
63.000000	4355.897436	4384.615385	4403.076923	3714.871795	4383.076923	4609.743590	4629.230769	4505.128205	4009.743590	4093.846154	4514.871795	4430.769231	4260.512821	3949.230769	1737.000000	1678.000000	166.279000	0.000000	0.000000	0.000000	0.000000	1	1	0	0	0	0	0	0	0	0	0	0	0	0	0	0	0	0	0	1	0.000	0.000
64.000000	4358.461538	4386.153846	4402.051282	3715.384615	4382.564103	4613.333333	4629.230769	4511.282051	4016.923077	4100.000000	4513.846154	4434.358974	4262.564103	3952.820513	1735.000000	1678.000000	166.287000	0.000000	0.000000	0.000000	0.000000	1	1	0	0	0	0	0	0	0	0	0	0	0	0	0	0	0	0	0	1	0.000	0.000
65.000000	4355.384615	4391.282051	4402.564103	3712.307692	4386.153846	4613.846154	4629.230769	4510.769231	4018.461538	4104.615385	4516.923077	4436.410256	4265.641026	3950.769231	1737.000000	1678.000000	166.295000	0.000000	0.000000	0.000000	0.000000	1	1	0	0	0	0	0	0	0	0	0	0	0	0	0	0	0	0	0	1	0.000	0.000
66.000000	4352.820513	4393.333333	4405.128205	3713.846154	4387.179487	4613.333333	4631.794872	4511.282051	4016.923077	4104.615385	4518.974359	4431.794872	4264.615385	3948.205128	1736.000000	1679.000000	166.309000	0.000000	0.000000	0.000000	0.000000	1	1	0	0	0	0	0	0	0	0	0	0	0	0	0	0	0	0	0	1	0.000	0.000
67.000000	4356.410256	4389.230769	4407.692308	3715.384615	4383.076923	4613.846154	4632.820513	4522.051282	4025.641026	4108.717949	4518.461538	4436.923077	4267.692308	3954.871795	1735.000000	1678.000000	166.310000	0.000000	0.000000	0.000000	0.000000	1	1	0	0	0	0	0	0	0	0	0	0	0	0	0	0	0	0	0	1	0.000	0.000
68.000000	4357.948718	4386.666667	4405.128205	3712.820513	4384.102564	4614.871795	4631.282051	4523.589744	4025.128205	4105.128205	4516.410256	4438.461538	4267.692308	3956.410256	1737.000000	1678.000000	166.319000	0.000000	0.000000	0.000000	0.000000	1	1	0	0	0	0	0	0	0	0	0	0	0	0	0	0	0	0	0	1	0.000	0.000
69.000000	4357.948718	4387.179487	4404.615385	3712.307692	4386.153846	4614.871795	4630.256410	4528.717949	4029.230769	4112.820513	4524.615385	4442.051282	4271.282051	3960.000000	1736.000000	1678.000000	166.326000	0.000000	0.000000	0.000000	0.000000	1	1	0	0	0	0	0	0	0	0	0	0	0	0	0	0	0	0	0	1	0.000	0.000
70.000000	4358.461538	4387.692308	4404.615385	3713.846154	4383.076923	4614.358974	4631.282051	4526.153846	4032.307692	4113.333333	4524.102564	4441.025641	4270.256410	3957.435897	1737.000000	1678.000000	166.340000	0.000000	0.000000	0.000000	0.000000	1	1	0	0	0	0	0	0	0	0	0	0	0	0	0	0	0	0	0	1	0.000	0.000
71.000000	4357.435897	4388.717949	4404.102564	3713.333333	4383.076923	4613.333333	4630.769231	4523.076923	4029.230769	4108.205128	4519.487179	4440.512821	4267.179487	3955.384615	1737.000000	1678.000000	166.342000	0.000000	0.000000	0.000000	0.000000	1	1	0	0	0	0	0	0	0	0	0	0	0	0	0	0	0	0	0	1	0.000	0.000
72.000000	4356.923077	4389.230769	4403.076923	3713.846154	4386.666667	4612.820513	4630.769231	4520.512821	4022.051282	4104.615385	4517.948718	4436.923077	4265.641026	3952.307692	1736.000000	1679.000000	166.350000	0.000000	0.000000	0.000000	0.000000	1	1	0	0	0	0	0	0	0	0	0	0	0	0	0	0	0	0	0	1	0.000	0.000
73.000000	4356.923077	4386.666667	4404.615385	3715.384615	4384.102564	4611.282051	4630.769231	4515.897436	4021.538462	4105.128205	4517.435897	4436.410256	4265.128205	3951.282051	1736.000000	1677.000000	166.358000	0.000000	0.000000	0.000000	0.000000	1	1	0	0	0	0	0	0	0	0	0	0	0	0	0	0	0	0	0	1	0.000	0.000
74.000000	4355.384615	4386.153846	4405.128205	3714.871795	4381.538462	4612.820513	4630.256410	4512.307692	4022.564103	4103.589744	4512.820513	4434.358974	4263.076923	3950.256410	1736.000000	1679.000000	166.371000	0.000000	0.000000	0.000000	0.000000	1	1	0	0	0	0	0	0	0	0	0	0	0	0	0	0	0	0	0	1	0.000	0.000
75.000000	4353.846154	4386.153846	4402.564103	3712.820513	4385.128205	4613.846154	4628.717949	4510.769231	4017.435897	4101.538462	4512.307692	4431.794872	4262.051282	3947.179487	1738.000000	1677.000000	166.373000	0.000000	0.000000	0.000000	0.000000	1	1	0	0	0	0	0	0	0	0	0	0	0	0	0	0	0	0	0	1	0.000	0.000
76.000000	4355.384615	4385.128205	4403.076923	3711.282051	4385.641026	4611.794872	4628.717949	4509.230769	4016.410256	4100.512821	4515.897436	4432.307692	4262.564103	3945.641026	1736.000000	1678.000000	166.380000	0.000000	0.000000	0.000000	0.000000	1	1	0	0	0	0	0	0	0	0	0	0	0	0	0	0	0	0	0	1	0.000	0.000
77.000000	4356.923077	4386.153846	4404.615385	3711.282051	4381.025641	4610.769231	4628.717949	4498.461538	4009.230769	4092.307692	4512.307692	4429.743590	4257.948718	3944.102564	1737.000000	1678.000000	166.388000	0.000000	0.000000	0.000000	0.000000	1	1	0	0	0	0	0	0	0	0	0	0	0	0	0	0	0	0	0	1	0.000	0.000
78.000000	4355.897436	4387.179487	4407.179487	3712.820513	4380.512821	4611.794872	4629.230769	4497.435897	4006.666667	4093.846154	4510.769231	4429.743590	4259.487179	3946.153846	1736.000000	1677.000000	166.401000	0.000000	0.000000	0.000000	0.000000	1	1	0	0	0	0	0	0	0	0	0	0	0	0	0	0	0	0	0	1	0.000	0.000
79.000000	4354.358974	4385.641026	4406.153846	3711.794872	4383.076923	4612.820513	4630.256410	4503.589744	4011.794872	4098.974359	4513.846154	4429.743590	4263.076923	3947.179487	1736.000000	1678.000000	166.404000	0.000000	0.000000	0.000000	0.000000	1	1	0	0	0	0	0	0	0	0	0	0	0	0	0	0	0	0	0	1	0.000	0.000
80.000000	4354.871795	4384.102564	4405.128205	3711.794872	4381.538462	4611.794872	4630.769231	4510.769231	4020.000000	4105.128205	4517.435897	4434.358974	4263.589744	3949.743590	1737.000000	1678.000000	166.411000	0.000000	0.000000	0.000000	0.000000	1	1	0	0	0	0	0	0	0	0	0	0	0	0	0	0	0	0	0	1	0.000	0.000
81.000000	4355.897436	4386.153846	4404.615385	3712.820513	4380.512821	4612.307692	4630.256410	4512.820513	4019.487179	4104.615385	4516.410256	4436.923077	4263.076923	3950.769231	1737.000000	1678.000000	166.419000	0.000000	0.000000	0.000000	0.000000	1	1	0	0	0	0	0	0	0	0	0	0	0	0	0	0	0	0	0	1	0.000	0.000
82.000000	4355.897436	4386.666667	4402.564103	3713.846154	4382.564103	4612.820513	4629.743590	4516.923077	4018.974359	4104.102564	4515.384615	4437.948718	4264.102564	3952.820513	1736.000000	1678.000000	166.431000	0.000000	0.000000	0.000000	0.000000	1	1	0	0	0	0	0	0	0	0	0	0	0	0	0	0	0	0	0	1	0.000	0.000
83.000000	4356.410256	4385.641026	4401.538462	3714.358974	4382.564103	4613.333333	4631.282051	4517.948718	4023.076923	4105.128205	4514.871795	4435.897436	4266.153846	3953.333333	1735.000000	1678.000000	166.435000	0.000000	0.000000	0.000000	0.000000	1	1	0	0	0	0	0	0	0	0	0	0	0	0	0	0	0	0	0	1	0.000	0.000
84.000000	4356.923077	4384.615385	4406.666667	3712.307692	4382.051282	4611.794872	4631.794872	4522.051282	4028.717949	4111.282051	4517.948718	4440.512821	4269.743590	3956.410256	1736.000000	1678.000000	166.444000	0.000000	0.000000	0.000000	0.000000	1	1	0	0	0	0	0	0	0	0	0	0	0	0	0	0	0	0	0	1	0.000	0.000
85.000000	4356.410256	4385.641026	4407.692308	3711.794872	4383.589744	4612.307692	4633.846154	4524.102564	4029.230769	4109.743590	4519.487179	4438.974359	4270.256410	3956.923077	1735.000000	1679.000000	166.451000	0.000000	0.000000	0.000000	0.000000	1	1	0	0	0	0	0	0	0	0	0	0	0	0	0	0	0	0	0	1	0.000	0.000
86.000000	4356.410256	4388.205128	4406.153846	3713.333333	4383.589744	4612.307692	4632.820513	4528.205128	4034.871795	4113.333333	4522.564103	4441.025641	4269.230769	3958.974359	1737.000000	1678.000000	166.464000	0.000000	0.000000	0.000000	0.000000	1	1	0	0	0	0	0	0	0	0	0	0	0	0	0	0	0	0	0	1	0.000	0.000
87.000000	4358.461538	4387.179487	4407.692308	3712.820513	4384.102564	4612.820513	4629.743590	4528.205128	4035.897436	4114.358974	4521.025641	4441.538462	4267.179487	3956.923077	1735.000000	1678.000000	166.467000	0.000000	0.000000	0.000000	0.000000	1	1	0	0	0	0	0	0	0	0	0	0	0	0	0	0	0	0	0	1	0.000	0.000
88.000000	4357.948718	4384.615385	4409.230769	3711.282051	4384.615385	4614.871795	4630.256410	4524.102564	4029.743590	4106.153846	4517.435897	4438.974359	4266.153846	3956.410256	1737.000000	1678.000000	166.475000	0.000000	0.000000	0.000000	0.000000	1	1	0	0	0	0	0	0	0	0	0	0	0	0	0	0	0	0	0	1	0.000	0.000
89.000000	4355.384615	4389.230769	4406.153846	3714.358974	4386.153846	4614.358974	4632.820513	4516.410256	4024.102564	4100.000000	4515.897436	4434.358974	4262.564103	3953.846154	1736.000000	1678.000000	166.483000	0.000000	0.000000	0.000000	0.000000	1	1	0	0	0	0	0	0	0	0	0	0	0	0	0	0	0	0	0	1	0.000	0.000
90.000000	4354.871795	4390.256410	4406.153846	3714.358974	4387.179487	4612.307692	4631.794872	4516.410256	4027.179487	4107.692308	4517.435897	4437.948718	4263.589744	3951.282051	1736.000000	1679.000000	166.497000	0.000000	0.000000	0.000000	0.000000	1	1	0	0	0	0	0	0	0	0	0	0	0	0	0	0	0	0	0	1	0.000	0.000
91.000000	4355.897436	4384.102564	4407.179487	3710.769231	4386.153846	4611.794872	4631.794872	4516.410256	4023.589744	4105.641026	4515.384615	4436.410256	4264.615385	3949.743590	1736.000000	1678.000000	166.497000	0.000000	0.000000	0.000000	0.000000	1	1	0	0	0	0	0	0	0	0	0	0	0	0	0	0	0	0	0	1	0.000	0.000
92.000000	4354.358974	4383.076923	4403.076923	3711.794872	4382.564103	4610.769231	4632.307692	4507.179487	4012.307692	4094.871795	4511.794872	4431.794872	4262.051282	3949.230769	1736.000000	1678.000000	166.505000	0.000000	0.000000	0.000000	0.000000	1	1	0	0	0	0	0	0	0	0	0	0	0	0	0	0	0	0	0	1	0.000	0.000
93.000000	4353.846154	4387.692308	4402.051282	3712.307692	4383.589744	4610.256410	4630.769231	4507.179487	4014.871795	4100.000000	4512.820513	4435.384615	4262.564103	3949.743590	1736.000000	1678.000000	166.514000	0.000000	0.000000	0.000000	0.000000	1	1	0	0	0	0	0	0	0	0	0	0	0	0	0	0	0	0	0	1	0.000	0.000
94.000000	4355.897436	4385.128205	4405.128205	3710.769231	4386.666667	4612.307692	4630.256410	4504.615385	4016.410256	4100.000000	4512.820513	4432.820513	4262.564103	3946.666667	1735.000000	1678.000000	166.528000	0.000000	0.000000	0.000000	0.000000	1	1	0	0	0	0	0	0	0	0	0	0	0	0	0	0	0	0	0	1	0.000	0.000
95.000000	4355.897436	4381.025641	4406.153846	3713.333333	4385.128205	4613.333333	4630.769231	4505.641026	4015.384615	4098.461538	4516.410256	4431.794872	4263.589744	3948.717949	1737.000000	1678.000000	166.530000	0.000000	0.000000	0.000000	0.000000	1	1	0	0	0	0	0	0	0	0	0	0	0	0	0	0	0	0	0	1	0.000	0.000
96.000000	4354.871795	4383.589744	4403.589744	3715.897436	4382.564103	4612.820513	4630.256410	4510.256410	4014.358974	4100.000000	4513.846154	4433.846154	4263.589744	3948.717949	1736.000000	1678.000000	166.538000	0.000000	0.000000	0.000000	0.000000	1	1	0	0	0	0	0	0	0	0	0	0	0	0	0	0	0	0	0	1	0.000	0.000
97.000000	4355.897436	4386.153846	4406.153846	3714.358974	4384.102564	4610.256410	4631.794872	4518.974359	4023.076923	4107.179487	4514.358974	4438.974359	4265.641026	3951.794872	1737.000000	1678.000000	166.545000	0.000000	0.000000	0.000000	0.000000	1	1	0	0	0	0	0	0	0	0	0	0	0	0	0	0	0	0	0	1	0.000	0.000
98.000000	4356.410256	4386.153846	4407.179487	3712.820513	4388.205128	4609.743590	4634.871795	4519.487179	4025.128205	4107.179487	4518.461538	4437.948718	4266.153846	3954.358974	1736.000000	1678.000000	166.559000	0.000000	0.000000	0.000000	0.000000	1	1	0	0	0	0	0	0	0	0	0	0	0	0	0	0	0	0	0	1	0.000	0.000
99.000000	4354.358974	4385.641026	4405.128205	3715.384615	4386.153846	4613.333333	4632.307692	4517.435897	4024.102564	4106.666667	4517.948718	4440.512821	4268.205128	3954.871795	1737.000000	1678.000000	166.561000	0.000000	0.000000	0.000000	0.000000	1	1	0	0	0	0	0	0	0	0	0	0	0	0	0	0	0	0	0	1	0.000	0.000
100.000000	4353.333333	4387.179487	4406.153846	3717.948718	4383.076923	4614.358974	4629.743590	4522.051282	4028.205128	4109.743590	4518.461538	4440.512821	4269.743590	3955.897436	1736.000000	1676.000000	166.569000	0.000000	0.000000	0.000000	0.000000	1	1	0	0	0	0	0	0	0	0	0	0	0	0	0	0	0	0	0	1	0.000	0.000
101.000000	4356.410256	4387.179487	4409.743590	3716.410256	4383.589744	4611.282051	4629.743590	4531.282051	4033.846154	4114.871795	4526.153846	4443.589744	4271.794872	3962.051282	1737.000000	1679.000000	166.577000	0.000000	0.000000	0.000000	0.000000	1	1	0	0	0	0	0	0	0	0	0	0	0	0	0	0	0	0	0	1	0.000	0.000
102.000000	4357.435897	4386.153846	4407.692308	3711.794872	4385.128205	4613.333333	4631.794872	4530.256410	4031.794872	4111.282051	4523.589744	4443.076923	4269.743590	3958.974359	1737.000000	1677.000000	166.589000	0.000000	0.000000	0.000000	0.000000	1	1	0	0	0	0	0	0	0	0	0	0	0	0	0	0	0	0	0	1	0.000	0.000
103.000000	4356.410256	4386.153846	4404.615385	3710.256410	4384.615385	4615.384615	4631.282051	4524.102564	4031.794872	4107.179487	4518.974359	4441.025641	4269.743590	3955.384615	1736.000000	1678.000000	166.591000	0.000000	0.000000	0.000000	0.000000	1	1	0	0	0	0	0	0	0	0	0	0	0	0	0	0	0	0	0	1	0.000	0.000
104.000000	4356.923077	4387.692308	4405.641026	3713.333333	4385.128205	4611.282051	4630.769231	4522.564103	4031.794872	4106.666667	4518.974359	4438.974359	4270.769231	3956.410256	1737.000000	1678.000000	166.599000	0.000000	0.000000	0.000000	0.000000	1	1	0	0	0	0	0	0	0	0	0	0	0	0	0	0	0	0	0	1	0.000	0.000
105.000000	4357.435897	4387.692308	4407.179487	3712.820513	4385.128205	4609.230769	4629.743590	4525.128205	4032.820513	4110.769231	4520.000000	4442.051282	4268.205128	3957.948718	1736.000000	1678.000000	166.606000	0.000000	0.000000	0.000000	0.000000	1	1	0	0	0	0	0	0	0	0	0	0	0	0	0	0	0	0	0	1	0.000	0.000
106.000000	4356.923077	4386.666667	4405.641026	3711.282051	4384.102564	4612.307692	4630.256410	4516.410256	4028.205128	4104.102564	4516.410256	4436.410256	4261.025641	3949.743590	1737.000000	1678.000000	166.619000	0.000000	0.000000	0.000000	0.000000	1	1	0	0	0	0	0	0	0	0	0	0	0	0	0	0	0	0	0	1	0.000	0.000
107.000000	4355.897436	4387.179487	4406.153846	3712.307692	4385.128205	4613.333333	4629.743590	4512.307692	4022.564103	4100.512821	4517.948718	4432.820513	4263.589744	3948.205128	1735.000000	1678.000000	166.622000	0.000000	0.000000	0.000000	0.000000	1	1	0	0	0	0	0	0	0	0	0	0	0	0	0	0	0	0	0	1	0.000	0.000
108.000000	4356.923077	4389.743590	4407.179487	3712.820513	4385.641026	4611.794872	4628.717949	4514.358974	4022.051282	4100.512821	4518.974359	4433.846154	4266.666667	3951.282051	1737.000000	1678.000000	166.630000	0.000000	0.000000	0.000000	0.000000	1	1	0	0	0	0	0	0	0	0	0	0	0	0	0	0	0	0	0	1	0.000	0.000
109.000000	4358.974359	4389.743590	4404.615385	3712.307692	4383.589744	4612.307692	4627.692308	4503.589744	4017.435897	4092.820513	4513.333333	4429.743590	4260.000000	3945.641026	1736.000000	1678.000000	166.638000	0.000000	0.000000	0.000000	0.000000	1	1	0	0	0	0	0	0	0	0	0	0	0	0	0	0	0	0	0	1	0.000	0.000
110.000000	4356.410256	4386.153846	4402.051282	3712.820513	4384.102564	4612.820513	4627.692308	4503.589744	4014.871795	4096.410256	4512.820513	4429.230769	4258.974359	3945.128205	1736.000000	1679.000000	166.651000	0.000000	0.000000	0.000000	0.000000	1	1	0	0	0	0	0	0	0	0	0	0	0	0	0	0	0	0	0	1	0.000	0.000
111.000000	4354.358974	4383.076923	4404.102564	3711.282051	4384.615385	4611.282051	4628.205128	4508.717949	4014.871795	4100.512821	4515.384615	4430.256410	4261.025641	3949.743590	1736.000000	1677.000000	166.654000	0.000000	0.000000	0.000000	0.000000	1	1	0	0	0	0	0	0	0	0	0	0	0	0	0	0	0	0	0	1	0.000	0.000
112.000000	4357.435897	4385.128205	4408.717949	3711.282051	4382.564103	4611.794872	4629.743590	4516.410256	4023.589744	4104.102564	4520.512821	4435.897436	4263.076923	3954.358974	1736.000000	1679.000000	166.663000	0.000000	0.000000	0.000000	0.000000	1	1	0	0	0	0	0	0	0	0	0	0	0	0	0	0	0	0	0	1	0.000	0.000
113.000000	4357.435897	4387.179487	4405.641026	3713.846154	4382.051282	4612.307692	4630.769231	4515.897436	4022.051282	4101.025641	4517.948718	4433.846154	4264.615385	3951.282051	1736.000000	1678.000000	166.670000	0.000000	0.000000	0.000000	0.000000	1	1	0	0	0	0	0	0	0	0	0	0	0	0	0	0	0	0	0	1	0.000	0.000
114.000000	4353.846154	4385.128205	4404.102564	3713.333333	4382.051282	4612.820513	4629.230769	4517.948718	4018.974359	4102.564103	4517.435897	4436.410256	4265.641026	3951.282051	1735.000000	1678.000000	166.682000	0.000000	0.000000	0.000000	0.000000	1	1	0	0	0	0	0	0	0	0	0	0	0	0	0	0	0	0	0	1	0.000	0.000
115.000000	4355.384615	4383.589744	4406.666667	3713.846154	4382.564103	4613.333333	4630.769231	4522.564103	4025.128205	4104.102564	4518.461538	4438.461538	4265.641026	3952.820513	1737.000000	1678.000000	166.686000	0.000000	0.000000	0.000000	0.000000	1	1	0	0	0	0	0	0	0	0	0	0	0	0	0	0	0	0	0	1	0.000	0.000
116.000000	4357.948718	4386.666667	4410.769231	3715.384615	4384.102564	4613.846154	4631.282051	4526.666667	4031.794872	4108.205128	4520.000000	4441.025641	4268.205128	3954.358974	1736.000000	1678.000000	166.693000	0.000000	0.000000	0.000000	0.000000	1	1	0	0	0	0	0	0	0	0	0	0	0	0	0	0	0	0	0	1	0.000	0.000
117.000000	4357.435897	4390.256410	4407.692308	3713.333333	4385.128205	4616.410256	4630.769231	4527.179487	4031.794872	4110.256410	4518.974359	4438.461538	4267.179487	3957.435897	1736.000000	1678.000000	166.702000	0.000000	0.000000	0.000000	0.000000	1	1	0	0	0	0	0	0	0	0	0	0	0	0	0	0	0	0	0	1	0.000	0.000
118.000000	4353.846154	4387.179487	4404.615385	3712.307692	4383.589744	4617.435897	4631.794872	4530.256410	4034.358974	4112.820513	4522.564103	4442.051282	4269.743590	3960.512821	1736.000000	1678.000000	166.716000	0.000000	0.000000	0.000000	0.000000	1	1	0	0	0	0	0	0	0	0	0	0	0	0	0	0	0	0	0	1	0.000	0.000
119.000000	4353.846154	4385.641026	4405.128205	3712.307692	4384.615385	4613.846154	4632.820513	4528.717949	4034.358974	4110.256410	4521.538462	4442.051282	4270.769231	3957.435897	1737.000000	1678.000000	166.717000	0.000000	0.000000	0.000000	0.000000	1	1	0	0	0	0	0	0	0	0	0	0	0	0	0	0	0	0	0	1	0.000	0.000
120.000000	4356.410256	4388.717949	4407.692308	3710.769231	4387.179487	4609.743590	4630.256410	4526.666667	4032.820513	4105.641026	4517.948718	4438.974359	4268.717949	3955.897436	1735.000000	1678.000000	166.725000	0.000000	0.000000	0.000000	0.000000	1	1	0	0	0	0	0	0	0	0	0	0	0	0	0	0	0	0	0	1	0.000	0.000
121.000000	4356.923077	4388.717949	4403.589744	3708.717949	4386.666667	4612.307692	4629.743590	4518.461538	4025.641026	4097.948718	4513.333333	4433.333333	4264.615385	3952.307692	1737.000000	1678.000000	166.733000	0.000000	0.000000	0.000000	0.000000	1	1	0	0	0	0	0	0	0	0	0	0	0	0	0	0	0	0	0	1	0.000	0.000
122.000000	4356.923077	4385.641026	4398.974359	3712.307692	4383.589744	4613.333333	4631.282051	4516.923077	4020.000000	4102.564103	4514.871795	4435.897436	4265.641026	3952.820513	1736.000000	1678.000000	166.747000	0.000000	0.000000	0.000000	0.000000	1	1	0	0	0	0	0	0	0	0	0	0	0	0	0	0	0	0	0	1	0.000	0.000
123.000000	4356.923077	4386.153846	4402.564103	3715.897436	4384.102564	4610.256410	4631.282051	4515.897436	4020.000000	4103.076923	4514.871795	4437.948718	4264.102564	3950.769231	1737.000000	1678.000000	166.749000	0.000000	0.000000	0.000000	0.000000	1	1	0	0	0	0	0	0	0	0	0	0	0	0	0	0	0	0	0	1	0.000	0.000
124.000000	4354.871795	4387.179487	4404.615385	3713.846154	4385.128205	4609.743590	4629.743590	4505.641026	4016.923077	4093.846154	4512.307692	4432.307692	4259.487179	3944.615385	1736.000000	1678.000000	166.756000	0.000000	0.000000	0.000000	0.000000	1	1	0	0	0	0	0	0	0	0	0	0	0	0	0	0	0	0	0	1	0.000	0.000
125.000000	4354.871795	4385.128205	4402.564103	3712.307692	4384.102564	4611.794872	4629.230769	4504.615385	4016.923077	4096.923077	4514.871795	4430.256410	4262.564103	3948.717949	1736.000000	1677.000000	166.764000	0.000000	0.000000	0.000000	0.000000	1	1	0	0	0	0	0	0	0	0	0	0	0	0	0	0	0	0	0	1	0.000	0.000
126.000000	4355.384615	4384.102564	4403.076923	3713.333333	4383.589744	4611.794872	4629.743590	4502.564103	4011.282051	4094.358974	4513.846154	4429.230769	4261.025641	3947.692308	1736.000000	1678.000000	166.778000	0.000000	0.000000	0.000000	0.000000	1	1	0	0	0	0	0	0	0	0	0	0	0	0	0	0	0	0	0	1	0.000	0.000
127.000000	4356.410256	4386.153846	4403.589744	3713.333333	4384.102564	4609.230769	4631.282051	4505.128205	4011.794872	4095.384615	4512.820513	4432.820513	4261.025641	3944.615385	1738.000000	1678.000000	166.780000	0.000000	0.000000	0.000000	0.000000	1	1	0	0	0	0	0	0	0	0	0	0	0	0	0	0	0	0	0	1	0.000	0.000
128.000000	4357.435897	4388.205128	4403.589744	3709.743590	4383.076923	4610.769231	4630.769231	4505.641026	4012.820513	4098.461538	4515.384615	4433.333333	4263.076923	3945.641026	1736.000000	1678.000000	166.788000	0.000000	0.000000	0.000000	0.000000	1	1	0	0	0	0	0	0	0	0	0	0	0	0	0	0	0	0	0	1	0.000	0.000
0.000000	4356.410256	4387.692308	4407.692308	3712.307692	4383.589744	4612.307692	4629.743590	4514.358974	4018.461538	4104.615385	4521.538462	4437.435897	4266.153846	3954.871795	1737.000000	1679.000000	166.796000	0.000000	0.000000	0.000000	0.000000	1	1	0	0	0	0	0	0	0	0	0	0	0	0	0	0	0	0	0	1	0.000	0.000
1.000000	4353.846154	4389.743590	4408.717949	3714.871795	4386.666667	4611.794872	4632.820513	4518.974359	4020.000000	4104.102564	4521.025641	4436.923077	4266.666667	3955.384615	1736.000000	1678.000000	166.809000	0.000000	0.000000	0.000000	0.000000	1	1	0	0	0	0	0	0	0	0	0	0	0	0	0	0	0	0	0	1	0.000	0.000
2.000000	4354.871795	4389.743590	4405.128205	3714.358974	4387.179487	4611.282051	4633.846154	4518.974359	4019.487179	4103.589744	4518.461538	4436.923077	4266.153846	3953.333333	1736.000000	1679.000000	166.810000	0.000000	0.000000	0.000000	0.000000	1	1	0	0	0	0	0	0	0	0	0	0	0	0	0	0	0	0	0	1	0.000	0.000
3.000000	4355.384615	4386.153846	4404.615385	3715.897436	4386.666667	4613.846154	4631.794872	4525.128205	4027.179487	4107.692308	4519.487179	4439.487179	4269.743590	3955.384615	1737.000000	1677.000000	166.819000	0.000000	0.000000	0.000000	0.000000	1	1	0	0	0	0	0	0	0	0	0	0	0	0	0	0	0	0	0	1	0.000	0.000
4.000000	4354.358974	4385.641026	4407.692308	3716.923077	4386.153846	4614.358974	4629.230769	4530.256410	4034.871795	4111.794872	4520.512821	4442.564103	4272.307692	3957.948718	1735.000000	1678.000000	166.827000	0.000000	0.000000	0.000000	0.000000	1	1	0	0	0	0	0	0	0	0	0	0	0	0	0	0	0	0	0	1	0.000	0.000
5.000000	4355.384615	4389.230769	4407.179487	3712.820513	4384.102564	4612.307692	4631.794872	4526.153846	4030.256410	4109.230769	4516.923077	4437.948718	4267.179487	3956.410256	1737.000000	1678.000000	166.841000	0.000000	0.000000	0.000000	0.000000	1	1	0	0	0	0	0	0	0	0	0	0	0	0	0	0	0	0	0	1	0.000	0.000
6.000000	4354.871795	4386.666667	4406.666667	3711.282051	4383.076923	4611.794872	4632.307692	4526.153846	4028.205128	4111.282051	4518.974359	4437.948718	4265.641026	3955.897436	1737.000000	1678.000000	166.842000	0.000000	0.000000	0.000000	0.000000	1	1	0	0	0	0	0	0	0	0	0	0	0	0	0	0	0	0	0	1	0.000	0.000
7.000000	4354.358974	4384.615385	4406.153846	3713.846154	4385.641026	4614.358974	4631.794872	4524.615385	4029.743590	4112.307692	4521.025641	4437.948718	4268.717949	3954.358974	1736.000000	1678.000000	166.850000	0.000000	0.000000	0.000000	0.000000	1	1	0	0	0	0	0	0	0	0	0	0	0	0	0	0	0	0	0	1	0.000	0.000
8.000000	4355.897436	4388.205128	4405.641026	3714.358974	4386.153846	4614.358974	4631.794872	4526.666667	4031.794872	4111.282051	4523.589744	4440.512821	4270.256410	3957.948718	1737.000000	1678.000000	166.858000	0.000000	0.000000	0.000000	0.000000	1	1	0	0	0	0	0	0	0	0	0	0	0	0	0	0	0	0	0	1	0.000	0.000
9.000000	4355.384615	4387.692308	4405.641026	3711.282051	4383.589744	4611.282051	4633.333333	4518.974359	4024.615385	4101.025641	4520.512821	4437.435897	4263.589744	3953.333333	1738.000000	1678.000000	166.870000	0.000000	0.000000	0.000000	0.000000	1	1	0	0	0	0	0	0	0	0	0	0	0	0	0	0	0	0	0	1	0.000	0.000
10.000000	4353.846154	4384.102564	4407.692308	3710.769231	4382.051282	4610.256410	4630.769231	4513.846154	4020.512821	4101.025641	4517.948718	4435.384615	4263.076923	3949.743590	1736.000000	1678.000000	166.873000	0.000000	0.000000	0.000000	0.000000	1	1	0	0	0	0	0	0	0	0	0	0	0	0	0	0	0	0	0	1	0.000	0.000
11.000000	4354.358974	4385.128205	4407.692308	3712.307692	4384.615385	4611.282051	4628.717949	4513.846154	4021.538462	4102.051282	4516.410256	4432.820513	4265.128205	3949.743590	1737.000000	1679.000000	166.881000	0.000000	0.000000	0.000000	0.000000	1	1	0	0	0	0	0	0	0	0	0	0	0	0	0	0	0	0	0	1	0.000	0.000
12.000000	4354.358974	4387.179487	4403.076923	3712.307692	4385.641026	4608.717949	4629.743590	4501.538462	4011.282051	4089.743590	4512.307692	4428.205128	4259.487179	3943.589744	1737.000000	1677.000000	166.888000	0.000000	0.000000	0.000000	0.000000	1	1	0	0	0	0	0	0	0	0	0	0	0	0	0	0	0	0	0	1	0.000	0.000
13.000000	4354.871795	4386.153846	4404.615385	3713.846154	4382.051282	4608.717949	4630.769231	4502.051282	4011.282051	4094.871795	4513.846154	4433.333333	4260.512821	3945.128205	1736.000000	1679.000000	166.901000	0.000000	0.000000	0.000000	0.000000	1	1	0	0	0	0	0	0	0	0	0	0	0	0	0	0	0	0	0	1	0.000	0.000
14.000000	4356.923077	4384.615385	4406.153846	3713.846154	4382.564103	4612.820513	4630.769231	4504.102564	4011.794872	4098.974359	4514.871795	4433.333333	4263.589744	3948.717949	1737.000000	1677.000000	166.904000	0.000000	0.000000	0.000000	0.000000	1	1	0	0	0	0	0	0	0	0	0	0	0	0	0	0	0	0	0	1	0.000	0.000
15.000000	4356.410256	4384.615385	4404.102564	3713.333333	4385.641026	4613.333333	4630.769231	4512.820513	4015.897436	4101.538462	4517.435897	4434.871795	4266.666667	3952.307692	1735.000000	1678.000000	166.913000	0.000000	0.000000	0.000000	0.000000	1	1	0	0	0	0	0	0	0	0	0	0	0	0	0	0	0	0	0	1	0.000	0.000
16.000000	4355.384615	4385.128205	4402.564103	3715.384615	4385.128205	4612.820513	4631.794872	4512.820513	4017.435897	4100.000000	4518.461538	4434.871795	4264.615385	3949.743590	1736.000000	1678.000000	166.920000	0.000000	0.000000	0.000000	0.000000	1	1	0	0	0	0	0	0	0	0	0	0	0	0	0	0	0	0	0	1	0.000	0.000
17.000000	4354.871795	4387.692308	4405.128205	3715.384615	4382.051282	4613.846154	4632.820513	4511.282051	4021.538462	4104.615385	4518.461538	4435.384615	4265.128205	3950.256410	1736.000000	1678.000000	166.935000	0.000000	0.000000	0.000000	0.000000	1	1	0	0	0	0	0	0	0	0	0	0	0	0	0	0	0	0	0	1	0.000	0.000
18.000000	4355.384615	4388.205128	4405.128205	3710.769231	4384.102564	4612.820513	4631.794872	4517.948718	4025.128205	4108.717949	4516.410256	4435.897436	4269.230769	3951.282051	1737.000000	1679.000000	166.935000	0.000000	0.000000	0.000000	0.000000	1	1	0	0	0	0	0	0	0	0	0	0	0	0	0	0	0	0	0	1	0.000	0.000
19.000000	4355.897436	4387.692308	4404.102564	3710.769231	4385.641026	4611.282051	4630.256410	4522.564103	4027.179487	4108.205128	4517.948718	4441.025641	4271.794872	3953.846154	1737.000000	1678.000000	166.943000	0.000000	0.000000	0.000000	0.000000	1	1	0	0	0	0	0	0	0	0	0	0	0	0	0	0	0	0	0	1	0.000	0.000
20.000000	4355.897436	4389.743590	4403.589744	3716.410256	4385.128205	4611.794872	4633.333333	4518.461538	4029.230769	4104.102564	4517.435897	4437.435897	4266.666667	3953.846154	1736.000000	1678.000000	166.952000	0.000000	0.000000	0.000000	0.000000	1	1	0	0	0	0	0	0	0	0	0	0	0	0	0	0	0	0	0	1	0.000	0.000
21.000000	4355.897436	4390.256410	4403.589744	3714.871795	4384.615385	4614.358974	4634.871795	4515.897436	4027.179487	4103.589744	4514.871795	4432.307692	4264.102564	3950.769231	1736.000000	1678.000000	166.964000	0.000000	0.000000	0.000000	0.000000	1	1	0	0	0	0	0	0	0	0	0	0	0	0	0	0	0	0	0	1	0.000	0.000
22.000000	4356.410256	4388.717949	4400.512821	3711.282051	4385.128205	4617.435897	4632.820513	4508.717949	4014.871795	4096.923077	4511.282051	4425.641026	4262.564103	3942.564103	1737.000000	1678.000000	166.968000	0.000000	0.000000	0.000000	0.000000	1	1	0	0	0	0	0	0	0	0	0	0	0	0	0	0	0	0	0	1	0.000	0.000
23.000000	4356.923077	4389.743590	4401.025641	3713.846154	4384.615385	4616.410256	4631.794872	4510.769231	4016.410256	4098.461538	4516.923077	4427.692308	4264.615385	3947.179487	1736.000000	1677.000000	166.975000	0.000000	0.000000	0.000000	0.000000	1	1	0	0	0	0	0	0	0	0	0	0	0	0	0	0	0	0	0	1	0.000	0.000
24.000000	4354.871795	4390.256410	4400.512821	3712.820513	4384.102564	4615.384615	4631.794872	4509.230769	4017.435897	4093.333333	4514.871795	4425.641026	4260.000000	3947.179487	1736.000000	1679.000000	166.983000	0.000000	0.000000	0.000000	0.000000	1	1	0	0	0	0	0	0	0	0	0	0	0	0	0	0	0	0	0	1	0.000	0.000
25.000000	4350.256410	4387.692308	4396.923077	3707.692308	4384.615385	4615.897436	4630.769231	4475.897436	3989.743590	4070.256410	4500.000000	4410.256410	4248.717949	3929.230769	1737.000000	1677.000000	166.997000	0.000000	0.000000	0.000000	0.000000	1	1	0	0	0	0	0	0	0	0	0	0	0	0	0	0	0	0	0	1	0.000	0.000
26.000000	4352.307692	4387.692308	4399.487179	3709.743590	4384.615385	4616.410256	4632.820513	4482.051282	3992.307692	4083.589744	4504.102564	4413.846154	4255.897436	3933.846154	1735.000000	1678.000000	166.999000	0.000000	0.000000	0.000000	0.000000	1	1	0	0	0	0	0	0	0	0	0	0	0	0	0	0	0	0	0	1	0.000	0.000
27.000000	4355.897436	4387.179487	4397.948718	3712.307692	4382.051282	4614.358974	4631.794872	4482.564103	3991.282051	4080.512821	4505.128205	4415.897436	4255.897436	3933.333333	1737.000000	1678.000000	167.007000	0.000000	0.000000	0.000000	0.000000	1	1	0	0	0	0	0	0	0	0	0	0	0	0	0	0	0	0	0	1	0.000	0.000
28.000000	4356.410256	4387.692308	4396.410256	3711.794872	4382.051282	4616.923077	4633.846154	4492.820513	3996.923077	4086.666667	4506.666667	4420.512821	4257.948718	3938.461538	1737.000000	1677.000000	167.015000	0.000000	0.000000	0.000000	0.000000	1	1	0	0	0	0	0	0	0	0	0	0	0	0	0	0	0	0	0	1	0.000	0.000
29.000000	4354.358974	4388.205128	4398.974359	3709.743590	4384.615385	4617.948718	4635.384615	4489.230769	3995.384615	4085.641026	4505.641026	4417.948718	4255.897436	3936.923077	1736.000000	1679.000000	167.029000	0.000000	0.000000	0.000000	0.000000	1	1	0	0	0	0	0	0	0	0	0	0	0	0	0	0	0	0	0	1	0.000	0.000
30.000000	4354.358974	4388.717949	4405.128205	3712.820513	4385.641026	4615.897436	4633.846154	4513.333333	4014.358974	4105.128205	4517.435897	4432.307692	4268.205128	3949.743590	1736.000000	1678.000000	167.029000	0.000000	0.000000	0.000000	0.000000	1	1	0	0	0	0	0	0	0	0	0	0	0	0	0	0	0	0	0	1	0.000	0.000
31.000000	4351.794872	4388.717949	4401.538462	3715.384615	4383.589744	4614.871795	4633.333333	4500.000000	4005.641026	4091.282051	4510.256410	4423.589744	4263.076923	3940.000000	1737.000000	1678.000000	167.038000	0.000000	0.000000	0.000000	0.000000	1	1	0	0	0	0	0	0	0	0	0	0	0	0	0	0	0	0	0	1	0.000	0.000
32.000000	4354.358974	4390.769231	4403.076923	3714.871795	4384.615385	4615.897436	4636.923077	4508.717949	4013.333333	4101.538462	4513.846154	4429.230769	4266.666667	3948.205128	1736.000000	1677.000000	167.046000	0.000000	0.000000	0.000000	0.000000	1	1	0	0	0	0	0	0	0	0	0	0	0	0	0	0	0	0	0	1	0.000	0.000
33.000000	4356.410256	4389.230769	4402.564103	3711.282051	4385.641026	4613.333333	4634.871795	4500.000000	4007.692308	4090.256410	4510.256410	4425.641026	4260.000000	3942.051282	1737.000000	1679.000000	167.060000	0.000000	0.000000	0.000000	0.000000	1	1	0	0	0	0	0	0	0	0	0	0	0	0	0	0	0	0	0	1	0.000	0.000
34.000000	4351.794872	4386.666667	4398.461538	3711.282051	4382.564103	4613.333333	4631.794872	4477.435897	3985.128205	4073.333333	4501.025641	4412.820513	4252.820513	3929.743590	1736.000000	1677.000000	167.061000	0.000000	0.000000	0.000000	0.000000	1	1	0	0	0	0	0	0	0	0	0	0	0	0	0	0	0	0	0	1	0.000	0.000
35.000000	4352.307692	4390.256410	4397.435897	3712.820513	4382.051282	4617.435897	4635.897436	4494.871795	3997.435897	4089.743590	4505.128205	4416.923077	4259.487179	3935.897436	1737.000000	1678.000000	167.069000	0.000000	0.000000	0.000000	0.000000	1	1	0	0	0	0	0	0	0	0	0	0	0	0	0	0	0	0	0	1	0.000	0.000
36.000000	4354.358974	4391.282051	4395.384615	3711.794872	4383.076923	4616.923077	4637.948718	4476.923077	3982.564103	4071.282051	4502.051282	4411.282051	4249.743590	3926.666667	1737.000000	1678.000000	167.077000	0.000000	0.000000	0.000000	0.000000	1	1	0	0	0	0	0	0	0	0	0	0	0	0	0	0	0	0	0	1	0.000	0.000
37.000000	4356.410256	4393.846154	4395.897436	3714.358974	4382.051282	4619.487179	4643.076923	4488.717949	3988.717949	4084.102564	4505.641026	4413.333333	4254.871795	3934.871795	1735.000000	1678.000000	167.093000	0.000000	0.000000	0.000000	0.000000	1	1	0	0	0	0	0	0	0	0	0	0	0	0	0	0	0	0	0	1	0.000	0.000
38.000000	4353.333333	4393.333333	4398.461538	3712.307692	4381.025641	4620.000000	4642.564103	4495.384615	3996.923077	4092.820513	4505.641026	4413.846154	4261.025641	3937.435897	1737.000000	1679.000000	167.094000	0.000000	0.000000	0.000000	0.000000	1	1	0	0	0	0	0	0	0	0	0	0	0	0	0	0	0	0	0	1	0.000	0.000
39.000000	4355.384615	4394.871795	4404.102564	3712.820513	4385.128205	4621.025641	4644.102564	4532.820513	4031.282051	4120.000000	4521.538462	4431.282051	4275.384615	3955.384615	1736.000000	1678.000000	167.100000	0.000000	0.000000	0.000000	0.000000	1	1	0	0	0	0	0	0	0	0	0	0	0	0	0	0	0	0	0	1	0.000	0.000
40.000000	4356.923077	4392.820513	4398.974359	3711.794872	4384.615385	4622.051282	4645.641026	4511.794872	4018.974359	4095.384615	4512.307692	4418.974359	4261.538462	3943.589744	1735.000000	1678.000000	167.107000	0.000000	0.000000	0.000000	0.000000	1	1	0	0	0	0	0	0	0	0	0	0	0	0	0	0	0	0	0	1	0.000	0.000
41.000000	4348.205128	4379.487179	4400.000000	3704.102564	4378.974359	4612.820513	4629.743590	4470.256410	3979.487179	4063.589744	4500.512821	4413.846154	4247.179487	3924.615385	1736.000000	1676.000000	167.121000	0.000000	0.000000	0.000000	0.000000	1	1	0	0	0	0	0	0	0	0	0	0	0	0	0	0	0	0	0	1	0.000	0.000
42.000000	4346.153846	4367.179487	4433.333333	3705.128205	4379.487179	4599.487179	4614.358974	4607.692308	4084.615385	4179.487179	4561.538462	4504.102564	4303.589744	3998.461538	1735.000000	1678.000000	167.124000	0.000000	0.000000	0.000000	0.000000	1	1	0	0	0	0	0	0	0	0	0	0	0	0	0	0	0	0	0	1	0.000	0.000
43.000000	4354.871795	4370.769231	4444.615385	3715.897436	4382.051282	4598.974359	4621.538462	4685.641026	4159.487179	4229.743590	4585.641026	4534.871795	4324.102564	4031.794872	1736.000000	1678.000000	167.131000	0.000000	0.000000	0.000000	0.000000	1	1	0	0	0	0	0	0	0	0	0	0	0	0	0	0	0	0	0	1	0.000	0.000
44.000000	4359.487179	4381.538462	4420.512821	3718.974359	4383.589744	4608.205128	4635.384615	4584.102564	4092.820513	4139.487179	4536.410256	4465.128205	4281.538462	3975.897436	1736.000000	1679.000000	167.141000	0.000000	0.000000	0.000000	0.000000	1	1	0	0	0	0	0	0	0	0	0	0	0	0	0	0	0	0	0	1	0.000	0.000
45.000000	4355.384615	4384.615385	4404.615385	3713.846154	4385.128205	4610.256410	4632.307692	4496.410256	4021.538462	4075.897436	4505.641026	4420.512821	4253.333333	3936.923077	1737.000000	1679.000000	167.153000	0.000000	0.000000	0.000000	0.000000	1	1	0	0	0	0	0	0	0	0	0	0	0	0	0	0	0	0	0	1	0.000	0.000
46.000000	4357.435897	4385.128205	4411.794872	3715.384615	4384.102564	4611.282051	4631.282051	4552.307692	4056.923077	4128.205128	4530.256410	4451.282051	4276.410256	3969.743590	1737.000000	1679.000000	167.154000	0.000000	0.000000	0.000000	0.000000	1	1	0	0	0	0	0	0	0	0	0	0	0	0	0	0	0	0	0	1	0.000	0.000
47.000000	4356.923077	4383.076923	4406.666667	3714.871795	4381.025641	4611.282051	4630.256410	4526.666667	4037.948718	4102.564103	4516.923077	4437.435897	4260.512821	3950.769231	1736.000000	1677.000000	167.162000	0.000000	0.000000	0.000000	0.000000	1	1	0	0	0	0	0	0	0	0	0	0	0	0	0	0	0	0	0	1	0.000	0.000
48.000000	4356.923077	4384.615385	4404.102564	3713.846154	4383.589744	4612.307692	4629.743590	4502.564103	4017.435897	4088.205128	4510.769231	4428.205128	4255.897436	3944.615385	1735.000000	1677.000000	167.170000	0.000000	0.000000	0.000000	0.000000	1	1	0	0	0	0	0	0	0	0	0	0	0	0	0	0	0	0	0	1	0.000	0.000
49.000000	4359.487179	4386.666667	4406.666667	3713.333333	4385.128205	4612.307692	4631.282051	4530.769231	4039.487179	4114.871795	4525.128205	4446.666667	4271.282051	3966.666667	1736.000000	1678.000000	167.183000	0.000000	0.000000	0.000000	0.000000	1	1	0	0	0	0	0	0	0	0	0	0	0	0	0	0	0	0	0	1	0.000	0.000
50.000000	4356.410256	4386.153846	4405.641026	3710.256410	4384.615385	4611.282051	4632.307692	4520.512821	4031.282051	4105.641026	4521.025641	4440.000000	4268.205128	3959.487179	1736.000000	1679.000000	167.186000	0.000000	0.000000	0.000000	0.000000	1	1	0	0	0	0	0	0	0	0	0	0	0	0	0	0	0	0	0	1	0.000	0.000
51.000000	4354.871795	4384.102564	4411.794872	3710.256410	4385.128205	4610.256410	4629.743590	4537.948718	4044.102564	4118.461538	4525.128205	4446.666667	4273.333333	3963.589744	1736.000000	1679.000000	167.193000	0.000000	0.000000	0.000000	0.000000	1	1	0	0	0	0	0	0	0	0	0	0	0	0	0	0	0	0	0	1	0.000	0.000
52.000000	4357.435897	4385.128205	4411.794872	3712.307692	4386.666667	4610.769231	4627.692308	4532.307692	4040.000000	4111.282051	4522.564103	4444.102564	4270.769231	3961.025641	1736.000000	1679.000000	167.201000	0.000000	0.000000	0.000000	0.000000	1	1	0	0	0	0	0	0	0	0	0	0	0	0	0	0	0	0	0	1	0.000	0.000
53.000000	4357.948718	4387.692308	4410.256410	3713.333333	4386.153846	4612.307692	4630.769231	4534.358974	4041.538462	4115.384615	4526.153846	4449.743590	4273.846154	3964.615385	1735.000000	1678.000000	167.213000	0.000000	0.000000	0.000000	0.000000	1	1	0	0	0	0	0	0	0	0	0	0	0	0	0	0	0	0	0	1	0.000	0.000
54.000000	4355.897436	4386.666667	4407.692308	3712.820513	4385.641026	4612.820513	4630.256410	4534.871795	4040.512821	4113.333333	4523.076923	4446.153846	4271.282051	3960.000000	1736.000000	1679.000000	167.217000	0.000000	0.000000	0.000000	0.000000	1	1	0	0	0	0	0	0	0	0	0	0	0	0	0	0	0	0	0	1	0.000	0.000
55.000000	4357.948718	4385.128205	4408.717949	3712.307692	4385.128205	4612.307692	4628.717949	4540.000000	4042.564103	4115.384615	4522.564103	4444.615385	4269.743590	3960.512821	1738.000000	1677.000000	167.225000	0.000000	0.000000	0.000000	0.000000	1	1	0	0	0	0	0	0	0	0	0	0	0	0	0	0	0	0	0	1	0.000	0.000
56.000000	4357.435897	4386.666667	4405.641026	3711.794872	4386.666667	4613.333333	4632.307692	4521.538462	4028.205128	4102.051282	4514.871795	4435.384615	4263.589744	3950.256410	1735.000000	1677.000000	167.232000	0.000000	0.000000	0.000000	0.000000	1	1	0	0	0	0	0	0	0	0	0	0	0	0	0	0	0	0	0	1	0.000	0.000
57.000000	4356.410256	4388.717949	4403.076923	3715.384615	4386.666667	4615.897436	4634.871795	4508.205128	4017.435897	4096.923077	4511.282051	4431.794872	4263.076923	3945.128205	1737.000000	1678.000000	167.247000	0.000000	0.000000	0.000000	0.000000	1	1	0	0	0	0	0	0	0	0	0	0	0	0	0	0	0	0	0	1	0.000	0.000
58.000000	4356.923077	4387.692308	4399.487179	3716.410256	4384.615385	4616.410256	4634.871795	4505.128205	4015.384615	4092.307692	4509.230769	4429.743590	4258.974359	3944.102564	1736.000000	1677.000000	167.248000	0.000000	0.000000	0.000000	0.000000	1	1	0	0	0	0	0	0	0	0	0	0	0	0	0	0	0	0	0	1	0.000	0.000
59.000000	4352.820513	4385.128205	4395.897436	3713.333333	4384.615385	4613.846154	4634.871795	4474.871795	3990.256410	4065.641026	4498.461538	4410.769231	4244.615385	3930.769231	1736.000000	1679.000000	167.257000	0.000000	0.000000	0.000000	0.000000	1	1	0	0	0	0	0	0	0	0	0	0	0	0	0	0	0	0	0	1	0.000	0.000
60.000000	4354.358974	4387.179487	4400.000000	3712.307692	4385.128205	4617.948718	4637.435897	4487.179487	3997.435897	4081.538462	4505.641026	4415.897436	4253.333333	3938.461538	1737.000000	1677.000000	167.265000	0.000000	0.000000	0.000000	0.000000	1	1	0	0	0	0	0	0	0	0	0	0	0	0	0	0	0	0	0	1	0.000	0.000
61.000000	4354.358974	4388.205128	4396.923077	3714.358974	4383.076923	4619.487179	4635.384615	4472.820513	3987.692308	4070.769231	4501.025641	4411.282051	4248.717949	3927.179487	1736.000000	1679.000000	167.279000	0.000000	0.000000	0.000000	0.000000	1	1	0	0	0	0	0	0	0	0	0	0	0	0	0	0	0	0	0	1	0.000	0.000
62.000000	4352.307692	4390.769231	4396.410256	3716.923077	4383.589744	4617.435897	4636.923077	4478.974359	3991.282051	4074.358974	4503.589744	4414.871795	4252.307692	3930.256410	1736.000000	1678.000000	167.279000	0.000000	0.000000	0.000000	0.000000	1	1	0	0	0	0	0	0	0	0	0	0	0	0	0	0	0	0	0	1	0.000	0.000
63.000000	4352.307692	4387.692308	4397.435897	3713.846154	4386.666667	4614.871795	4635.897436	4477.948718	3986.666667	4072.307692	4503.076923	4411.794872	4251.794872	3931.282051	1736.000000	1678.000000	167.288000	0.000000	0.000000	0.000000	0.000000	1	1	0	0	0	0	0	0	0	0	0	0	0	0	0	0	0	0	0	1	0.000	0.000
64.000000	4355.897436	4386.153846	4401.538462	3711.794872	4386.666667	4615.897436	4634.871795	4497.948718	3999.487179	4095.897436	4509.743590	4424.102564	4261.025641	3944.615385	1736.000000	1677.000000	167.294000	0.000000	0.000000	0.000000	0.000000	1	1	0	0	0	0	0	0	0	0	0	0	0	0	0	0	0	0	0	1	0.000	0.000
65.000000	4353.333333	4387.692308	4400.512821	3714.871795	4384.102564	4617.948718	4635.384615	4496.923077	4001.538462	4092.820513	4505.641026	4421.025641	4256.410256	3938.974359	1735.000000	1678.000000	167.309000	0.000000	0.000000	0.000000	0.000000	1	1	0	0	0	0	0	0	0	0	0	0	0	0	0	0	0	0	0	1	0.000	0.000
66.000000	4351.794872	4388.205128	4402.051282	3714.358974	4382.564103	4618.461538	4634.358974	4486.666667	3991.794872	4082.564103	4506.666667	4417.435897	4253.333333	3935.384615	1736.000000	1677.000000	167.311000	0.000000	0.000000	0.000000	0.000000	1	1	0	0	0	0	0	0	0	0	0	0	0	0	0	0	0	0	0	1	0.000	0.000
67.000000	4356.410256	4387.692308	4406.153846	3712.307692	4384.102564	4616.410256	4634.358974	4516.410256	4014.871795	4106.666667	4517.435897	4432.820513	4266.666667	3950.256410	1734.000000	1678.000000	167.319000	0.000000	0.000000	0.000000	0.000000	1	1	0	0	0	0	0	0	0	0	0	0	0	0	0	0	0	0	0	1	0.000	0.000
68.000000	4352.820513	4384.615385	4404.102564	3713.846154	4383.076923	4612.820513	4631.282051	4497.948718	4004.102564	4089.743590	4507.179487	4426.666667	4261.538462	3937.948718	1736.000000	1678.000000	167.327000	0.000000	0.000000	0.000000	0.000000	1	1	0	0	0	0	0	0	0	0	0	0	0	0	0	0	0	0	0	1	0.000	0.000
69.000000	4351.282051	4386.153846	4409.230769	3715.384615	4384.615385	4615.897436	4631.794872	4520.512821	4021.025641	4109.743590	4518.974359	4436.923077	4270.769231	3952.820513	1735.000000	1678.000000	167.341000	0.000000	0.000000	0.000000	0.000000	1	1	0	0	0	0	0	0	0	0	0	0	0	0	0	0	0	0	0	1	0.000	0.000
70.000000	4350.769231	4385.128205	4410.769231	3711.282051	4384.102564	4615.384615	4630.769231	4530.256410	4027.179487	4113.333333	4522.051282	4445.128205	4268.205128	3958.974359	1736.000000	1679.000000	167.343000	0.000000	0.000000	0.000000	0.000000	1	1	0	0	0	0	0	0	0	0	0	0	0	0	0	0	0	0	0	1	0.000	0.000
71.000000	4353.333333	4383.076923	4408.717949	3713.333333	4382.564103	4612.820513	4633.333333	4526.153846	4024.102564	4107.179487	4517.435897	4443.076923	4267.692308	3954.358974	1737.000000	1677.000000	167.351000	0.000000	0.000000	0.000000	0.000000	1	1	0	0	0	0	0	0	0	0	0	0	0	0	0	0	0	0	0	1	0.000	0.000
72.000000	4356.410256	4383.589744	4415.897436	3715.897436	4385.128205	4612.307692	4637.435897	4564.615385	4058.974359	4138.974359	4535.897436	4461.025641	4284.102564	3970.769231	1735.000000	1679.000000	167.358000	0.000000	0.000000	0.000000	0.000000	1	1	0	0	0	0	0	0	0	0	0	0	0	0	0	0	0	0	0	1	0.000	0.000
73.000000	4354.871795	4384.102564	4416.923077	3710.769231	4387.692308	4609.743590	4634.871795	4569.743590	4067.692308	4140.000000	4538.461538	4465.641026	4280.512821	3973.846154	1737.000000	1678.000000	167.372000	0.000000	0.000000	0.000000	0.000000	1	1	0	0	0	0	0	0	0	0	0	0	0	0	0	0	0	0	0	1	0.000	0.000
74.000000	4355.384615	4383.589744	4416.410256	3712.307692	4384.615385	4608.717949	4630.769231	4567.692308	4068.717949	4138.974359	4535.384615	4467.179487	4280.512821	3977.435897	1737.000000	1678.000000	167.373000	0.000000	0.000000	0.000000	0.000000	1	1	0	0	0	0	0	0	0	0	0	0	0	0	0	0	0	0	0	1	0.000	0.000
75.000000	4357.435897	4381.025641	4416.923077	3715.897436	4383.589744	4609.743590	4628.205128	4549.743590	4054.358974	4125.128205	4529.743590	4457.948718	4276.410256	3966.666667	1736.000000	1677.000000	167.381000	0.000000	0.000000	0.000000	0.000000	1	1	0	0	0	0	0	0	0	0	0	0	0	0	0	0	0	0	0	1	0.000	0.000
76.000000	4355.897436	4382.564103	4419.487179	3712.820513	4386.153846	4608.205128	4628.205128	4566.153846	4066.153846	4138.461538	4536.410256	4464.102564	4280.000000	3972.307692	1735.000000	1677.000000	167.389000	0.000000	0.000000	0.000000	0.000000	1	1	0	0	0	0	0	0	0	0	0	0	0	0	0	0	0	0	0	1	0.000	0.000
77.000000	4349.230769	4382.564103	4413.333333	3711.282051	4384.102564	4606.666667	4623.076923	4534.871795	4045.128205	4110.256410	4525.128205	4450.256410	4266.666667	3956.923077	1736.000000	1677.000000	167.401000	0.000000	0.000000	0.000000	0.000000	1	1	0	0	0	0	0	0	0	0	0	0	0	0	0	0	0	0	0	1	0.000	0.000
78.000000	4352.820513	4386.153846	4413.846154	3717.435897	4383.589744	4610.256410	4623.076923	4536.410256	4047.179487	4115.384615	4528.717949	4454.358974	4273.333333	3963.589744	1736.000000	1678.000000	167.405000	0.000000	0.000000	0.000000	0.000000	1	1	0	0	0	0	0	0	0	0	0	0	0	0	0	0	0	0	0	1	0.000	0.000
79.000000	4356.410256	4386.153846	4417.435897	3715.384615	4385.128205	4608.205128	4625.641026	4552.307692	4060.000000	4126.153846	4532.820513	4460.000000	4276.923077	3970.256410	1737.000000	1680.000000	167.412000	0.000000	0.000000	0.000000	0.000000	1	1	0	0	0	0	0	0	0	0	0	0	0	0	0	0	0	0	0	1	0.000	0.000
80.000000	4354.358974	4384.615385	4413.333333	3711.282051	4384.102564	4605.128205	4624.615385	4536.923077	4045.128205	4113.333333	4526.153846	4450.769231	4267.692308	3962.051282	1736.000000	1678.000000	167.421000	0.000000	0.000000	0.000000	0.000000	1	1	0	0	0	0	0	0	0	0	0	0	0	0	0	0	0	0	0	1	0.000	0.000
81.000000	4355.897436	4386.153846	4412.820513	3716.923077	4383.589744	4606.666667	4623.076923	4552.820513	4057.435897	4130.256410	4534.871795	4462.051282	4275.897436	3970.769231	1735.000000	1679.000000	167.434000	0.000000	0.000000	0.000000	0.000000	1	1	0	0	0	0	0	0	0	0	0	0	0	0	0	0	0	0	0	1	0.000	0.000
82.000000	4357.435897	4385.128205	4411.794872	3716.923077	4385.128205	4607.179487	4623.589744	4541.538462	4050.256410	4118.461538	4530.256410	4456.923077	4273.846154	3966.666667	1736.000000	1677.000000	167.436000	0.000000	0.000000	0.000000	0.000000	1	1	0	0	0	0	0	0	0	0	0	0	0	0	0	0	0	0	0	1	0.000	0.000
83.000000	4356.923077	4385.641026	4415.897436	3713.333333	4385.128205	4608.205128	4626.153846	4550.769231	4056.410256	4125.128205	4532.820513	4459.487179	4277.948718	3974.358974	1735.000000	1678.000000	167.444000	0.000000	0.000000	0.000000	0.000000	1	1	0	0	0	0	0	0	0	0	0	0	0	0	0	0	0	0	0	1	0.000	0.000
84.000000	4356.923077	4387.179487	4414.358974	3715.384615	4385.128205	4609.743590	4626.666667	4555.384615	4062.051282	4129.743590	4534.358974	4459.487179	4276.410256	3972.307692	1737.000000	1677.000000	167.452000	0.000000	0.000000	0.000000	0.000000	1	1	0	0	0	0	0	0	0	0	0	0	0	0	0	0	0	0	0	1	0.000	0.000
85.000000	4356.410256	4388.717949	4412.307692	3716.410256	4386.666667	4609.230769	4627.692308	4545.128205	4053.846154	4121.025641	4530.256410	4454.871795	4271.282051	3965.128205	1735.000000	1677.000000	167.464000	0.000000	0.000000	0.000000	0.000000	1	1	0	0	0	0	0	0	0	0	0	0	0	0	0	0	0	0	0	1	0.000	0.000
86.000000	4356.410256	4389.230769	4413.333333	3715.897436	4387.692308	4609.743590	4627.692308	4539.487179	4045.128205	4114.871795	4526.153846	4447.179487	4268.717949	3963.589744	1736.000000	1679.000000	167.467000	0.000000	0.000000	0.000000	0.000000	1	1	0	0	0	0	0	0	0	0	0	0	0	0	0	0	0	0	0	1	0.000	0.000
87.000000	4356.923077	4385.641026	4411.282051	3714.871795	4384.615385	4610.256410	4624.615385	4538.974359	4044.102564	4117.948718	4525.641026	4446.666667	4268.205128	3964.102564	1736.000000	1678.000000	167.476000	0.000000	0.000000	0.000000	0.000000	1	1	0	0	0	0	0	0	0	0	0	0	0	0	0	0	0	0	0	1	0.000	0.000
88.000000	4357.948718	4383.076923	4408.717949	3712.820513	4384.615385	4610.256410	4626.153846	4537.948718	4046.666667	4119.487179	4524.615385	4447.179487	4268.205128	3962.564103	1737.000000	1679.000000	167.484000	0.000000	0.000000	0.000000	0.000000	1	1	0	0	0	0	0	0	0	0	0	0	0	0	0	0	0	0	0	1	0.000	0.000
89.000000	4357.435897	4385.128205	4409.230769	3712.307692	4385.128205	4609.743590	4627.692308	4524.615385	4033.333333	4105.128205	4521.025641	4444.615385	4264.102564	3956.923077	1736.000000	1678.000000	167.498000	0.000000	0.000000	0.000000	0.000000	1	1	0	0	0	0	0	0	0	0	0	0	0	0	0	0	0	0	0	1	0.000	0.000
90.000000	4355.897436	4386.666667	4410.769231	3713.846154	4384.615385	4609.743590	4625.128205	4528.717949	4031.794872	4105.641026	4522.564103	4446.153846	4265.641026	3957.948718	1737.000000	1678.000000	167.498000	0.000000	0.000000	0.000000	0.000000	1	1	0	0	0	0	0	0	0	0	0	0	0	0	0	0	0	0	0	1	0.000	0.000
91.000000	4354.358974	4383.076923	4408.717949	3713.333333	4383.589744	4608.717949	4620.000000	4526.666667	4030.769231	4107.179487	4522.051282	4443.589744	4266.153846	3957.435897	1737.000000	1677.000000	167.507000	0.000000	0.000000	0.000000	0.000000	1	1	0	0	0	0	0	0	0	0	0	0	0	0	0	0	0	0	0	1	0.000	0.000
92.000000	4356.923077	4383.589744	4410.256410	3715.384615	4383.589744	4608.205128	4624.102564	4534.871795	4038.974359	4117.435897	4526.153846	4447.692308	4271.794872	3966.153846	1736.000000	1678.000000	167.525000	0.000000	0.000000	0.000000	0.000000	1	1	0	0	0	0	0	0	0	0	0	0	0	0	0	0	0	0	0	1	0.000	0.000
93.000000	4358.974359	4384.102564	4411.282051	3715.384615	4382.564103	4607.179487	4628.717949	4525.128205	4032.820513	4107.179487	4522.564103	4445.128205	4268.205128	3960.512821	1737.000000	1676.000000	167.538000	0.000000	0.000000	0.000000	0.000000	1	1	0	0	0	0	0	0	0	0	0	0	0	0	0	0	0	0	0	1	0.000	0.000
94.000000	4357.948718	4385.641026	4412.820513	3715.897436	4385.128205	4609.743590	4627.179487	4545.128205	4046.666667	4123.076923	4529.230769	4456.923077	4276.923077	3969.230769	1735.000000	1678.000000	167.538000	0.000000	0.000000	0.000000	0.000000	1	1	0	0	0	0	0	0	0	0	0	0	0	0	0	0	0	0	0	1	0.000	0.000
95.000000	4356.410256	4386.666667	4411.282051	3717.435897	4390.256410	4610.769231	4624.102564	4552.307692	4051.794872	4125.641026	4530.769231	4457.948718	4276.410256	3969.743590	1737.000000	1678.000000	167.538000	0.000000	0.000000	0.000000	0.000000	1	1	0	0	0	0	0	0	0	0	0	0	0	0	0	0	0	0	0	1	0.000	0.000
96.000000	4358.461538	4386.666667	4413.846154	3714.871795	4387.179487	4609.743590	4625.641026	4556.410256	4054.871795	4126.666667	4533.333333	4460.512821	4278.974359	3974.871795	1735.000000	1678.000000	167.546000	0.000000	0.000000	0.000000	0.000000	1	1	0	0	0	0	0	0	0	0	0	0	0	0	0	0	0	0	0	1	0.000	0.000
97.000000	4358.461538	4385.128205	4414.358974	3712.820513	4384.102564	4610.256410	4627.179487	4557.435897	4055.897436	4122.051282	4530.256410	4460.512821	4280.000000	3973.846154	1736.000000	1679.000000	167.560000	0.000000	0.000000	0.000000	0.000000	1	1	0	0	0	0	0	0	0	0	0	0	0	0	0	0	0	0	0	1	0.000	0.000
98.000000	4355.897436	4385.128205	4412.307692	3716.410256	4385.641026	4609.743590	4626.153846	4554.358974	4052.820513	4121.538462	4529.230769	4461.538462	4277.948718	3970.256410	1736.000000	1678.000000	167.562000	0.000000	0.000000	0.000000	0.000000	1	1	0	0	0	0	0	0	0	0	0	0	0	0	0	0	0	0	0	1	0.000	0.000
99.000000	4355.897436	4386.153846	4409.743590	3716.923077	4384.615385	4607.692308	4626.666667	4543.076923	4044.102564	4112.820513	4525.641026	4452.820513	4272.307692	3963.589744	1735.000000	1678.000000	167.570000	0.000000	0.000000	0.000000	0.000000	1	1	0	0	0	0	0	0	0	0	0	0	0	0	0	0	0	0	0	1	0.000	0.000
100.000000	4358.461538	4387.179487	4411.282051	3714.358974	4381.538462	4607.179487	4625.641026	4537.435897	4039.487179	4110.256410	4525.641026	4449.230769	4269.230769	3963.589744	1736.000000	1678.000000	167.578000	0.000000	0.000000	0.000000	0.000000	1	1	0	0	0	0	0	0	0	0	0	0	0	0	0	0	0	0	0	1	0.000	0.000
101.000000	4356.923077	4387.692308	4411.282051	3715.897436	4384.615385	4609.230769	4624.102564	4544.102564	4043.076923	4113.846154	4527.692308	4452.820513	4268.717949	3965.128205	1736.000000	1678.000000	167.590000	0.000000	0.000000	0.000000	0.000000	1	1	0	0	0	0	0	0	0	0	0	0	0	0	0	0	0	0	0	1	0.000	0.000
102.000000	4352.820513	4384.102564	4411.282051	3716.410256	4386.153846	4607.692308	4623.076923	4527.179487	4029.230769	4102.564103	4524.102564	4449.743590	4268.717949	3958.461538	1736.000000	1677.000000	167.593000	0.000000	0.000000	0.000000	0.000000	1	1	0	0	0	0	0	0	0	0	0	0	0	0	0	0	0	0	0	1	0.000	0.000
103.000000	4356.410256	4383.589744	4415.384615	3713.846154	4383.589744	4607.692308	4626.153846	4542.564103	4043.589744	4117.435897	4531.794872	4458.461538	4276.923077	3968.205128	1737.000000	1678.000000	167.601000	0.000000	0.000000	0.000000	0.000000	1	1	0	0	0	0	0	0	0	0	0	0	0	0	0	0	0	0	0	1	0.000	0.000
104.000000	4356.410256	4385.128205	4411.794872	3710.256410	4381.538462	4606.666667	4622.564103	4531.282051	4036.410256	4103.589744	4525.641026	4451.282051	4264.615385	3959.487179	1736.000000	1678.000000	167.609000	0.000000	0.000000	0.000000	0.000000	1	1	0	0	0	0	0	0	0	0	0	0	0	0	0	0	0	0	0	1	0.000	0.000
105.000000	4355.897436	4387.179487	4413.846154	3713.333333	4382.564103	4608.205128	4621.025641	4548.717949	4048.205128	4118.974359	4531.794872	4458.974359	4273.333333	3969.230769	1736.000000	1678.000000	167.621000	0.000000	0.000000	0.000000	0.000000	1	1	0	0	0	0	0	0	0	0	0	0	0	0	0	0	0	0	0	1	0.000	0.000
106.000000	4355.897436	4384.102564	4414.358974	3715.897436	4383.076923	4608.717949	4621.538462	4542.564103	4042.564103	4117.948718	4530.769231	4457.435897	4273.846154	3968.205128	1736.000000	1678.000000	167.623000	0.000000	0.000000	0.000000	0.000000	1	1	0	0	0	0	0	0	0	0	0	0	0	0	0	0	0	0	0	1	0.000	0.000
107.000000	4355.897436	4383.076923	4413.333333	3715.384615	4384.102564	4609.230769	4624.102564	4536.410256	4035.384615	4113.846154	4528.205128	4455.384615	4266.153846	3964.615385	1736.000000	1678.000000	167.630000	0.000000	0.000000	0.000000	0.000000	1	1	0	0	0	0	0	0	0	0	0	0	0	0	0	0	0	0	0	1	0.000	0.000
108.000000	4353.846154	4384.102564	4411.794872	3714.871795	4383.076923	4607.179487	4624.102564	4532.307692	4031.794872	4104.102564	4523.589744	4450.769231	4263.589744	3958.974359	1735.000000	1677.000000	167.639000	0.000000	0.000000	0.000000	0.000000	1	1	0	0	0	0	0	0	0	0	0	0	0	0	0	0	0	0	0	1	0.000	0.000
109.000000	4355.384615	4383.076923	4413.333333	3716.410256	4382.564103	4605.128205	4624.102564	4531.282051	4033.333333	4101.538462	4524.102564	4449.230769	4268.717949	3958.461538	1736.000000	1678.000000	167.652000	0.000000	0.000000	0.000000	0.000000	1	1	0	0	0	0	0	0	0	0	0	0	0	0	0	0	0	0	0	1	0.000	0.000
110.000000	4356.410256	4382.564103	4412.307692	3714.358974	4384.102564	4604.615385	4624.102564	4525.128205	4028.205128	4097.435897	4523.589744	4446.153846	4266.666667	3955.897436	1736.000000	1677.000000	167.655000	0.000000	0.000000	0.000000	0.000000	1	1	0	0	0	0	0	0	0	0	0	0	0	0	0	0	0	0	0	1	0.000	0.000
111.000000	4353.333333	4386.153846	4410.256410	3713.333333	4384.102564	4606.153846	4623.076923	4521.538462	4023.076923	4096.410256	4523.076923	4446.666667	4264.615385	3954.871795	1736.000000	1679.000000	167.662000	0.000000	0.000000	0.000000	0.000000	1	1	0	0	0	0	0	0	0	0	0	0	0	0	0	0	0	0	0	1	0.000	0.000
112.000000	4352.820513	4388.205128	4410.769231	3716.923077	4385.128205	4608.717949	4623.589744	4526.153846	4025.641026	4101.025641	4524.102564	4447.179487	4266.153846	3956.410256	1737.000000	1677.000000	167.670000	0.000000	0.000000	0.000000	0.000000	1	1	0	0	0	0	0	0	0	0	0	0	0	0	0	0	0	0	0	1	0.000	0.000
113.000000	4355.897436	4384.102564	4410.769231	3716.410256	4388.205128	4608.717949	4624.102564	4523.589744	4020.512821	4096.923077	4521.538462	4444.615385	4263.589744	3954.358974	1735.000000	1679.000000	167.683000	0.000000	0.000000	0.000000	0.000000	1	1	0	0	0	0	0	0	0	0	0	0	0	0	0	0	0	0	0	1	0.000	0.000
114.000000	4357.948718	4383.076923	4409.230769	3711.794872	4386.666667	4608.717949	4624.102564	4527.179487	4023.076923	4098.461538	4522.051282	4445.641026	4265.641026	3956.410256	1737.000000	1679.000000	167.687000	0.000000	0.000000	0.000000	0.000000	1	1	0	0	0	0	0	0	0	0	0	0	0	0	0	0	0	0	0	1	0.000	0.000
115.000000	4355.897436	4385.641026	4407.692308	3712.307692	4381.538462	4608.717949	4622.564103	4525.128205	4024.102564	4098.461538	4521.025641	4447.179487	4266.666667	3956.410256	1735.000000	1678.000000	167.694000	0.000000	0.000000	0.000000	0.000000	1	1	0	0	0	0	0	0	0	0	0	0	0	0	0	0	0	0	0	1	0.000	0.000
116.000000	4354.871795	4386.666667	4410.256410	3715.384615	4384.102564	4607.179487	4624.615385	4527.179487	4023.076923	4100.000000	4518.974359	4447.692308	4266.666667	3956.410256	1736.000000	1679.000000	167.703000	0.000000	0.000000	0.000000	0.000000	1	1	0	0	0	0	0	0	0	0	0	0	0	0	0	0	0	0	0	1	0.000	0.000
117.000000	4354.871795	4384.102564	4412.307692	3714.358974	4386.666667	4605.128205	4623.589744	4527.692308	4023.589744	4099.487179	4519.487179	4446.666667	4265.128205	3956.410256	1737.000000	1677.000000	167.717000	0.000000	0.000000	0.000000	0.000000	1	1	0	0	0	0	0	0	0	0	0	0	0	0	0	0	0	0	0	1	0.000	0.000
118.000000	4354.871795	4384.615385	4409.230769	3712.307692	4383.589744	4605.641026	4621.025641	4524.615385	4025.128205	4097.435897	4520.512821	4445.128205	4264.615385	3953.333333	1736.000000	1678.000000	167.717000	0.000000	0.000000	0.000000	0.000000	1	1	0	0	0	0	0	0	0	0	0	0	0	0	0	0	0	0	0	1	0.000	0.000
119.000000	4353.333333	4385.128205	4408.205128	3712.820513	4382.564103	4605.128205	4618.974359	4522.051282	4024.615385	4098.974359	4521.538462	4450.769231	4265.128205	3952.820513	1736.000000	1678.000000	167.726000	0.000000	0.000000	0.000000	0.000000	1	1	0	0	0	0	0	0	0	0	0	0	0	0	0	0	0	0	0	1	0.000	0.000
120.000000	4353.333333	4384.102564	4410.769231	3714.358974	4383.589744	4606.666667	4619.487179	4523.589744	4024.102564	4098.974359	4521.025641	4452.820513	4265.128205	3956.923077	1737.000000	1678.000000	167.733000	0.000000	0.000000	0.000000	0.000000	1	1	0	0	0	0	0	0	0	0	0	0	0	0	0	0	0	0	0	1	0.000	0.000
121.000000	4352.820513	4383.589744	4413.846154	3714.871795	4381.025641	4605.641026	4619.487179	4524.615385	4023.589744	4096.923077	4522.051282	4449.230769	4265.128205	3958.974359	1736.000000	1677.000000	167.747000	0.000000	0.000000	0.000000	0.000000	1	1	0	0	0	0	0	0	0	0	0	0	0	0	0	0	0	0	0	1	0.000	0.000
122.000000	4351.794872	4384.102564	4414.358974	3712.820513	4381.538462	4601.538462	4620.000000	4525.128205	4021.538462	4099.487179	4524.102564	4446.666667	4266.153846	3954.871795	1736.000000	1679.000000	167.749000	0.000000	0.000000	0.000000	0.000000	1	1	0	0	0	0	0	0	0	0	0	0	0	0	0	0	0	0	0	1	0.000	0.000
123.000000	4354.871795	4383.589744	4411.282051	3710.769231	4385.128205	4602.564103	4618.461538	4524.615385	4022.051282	4105.128205	4525.641026	4450.769231	4265.128205	3954.358974	1738.000000	1678.000000	167.756000	0.000000	0.000000	0.000000	0.000000	1	1	0	0	0	0	0	0	0	0	0	0	0	0	0	0	0	0	0	1	0.000	0.000
124.000000	4357.435897	4382.051282	4410.769231	3713.846154	4384.102564	4605.641026	4616.410256	4523.589744	4023.589744	4105.128205	4525.128205	4451.282051	4264.615385	3958.461538	1735.000000	1678.000000	167.765000	0.000000	0.000000	0.000000	0.000000	1	1	0	0	0	0	0	0	0	0	0	0	0	0	0	0	0	0	0	1	0.000	0.000
125.000000	4354.871795	4381.025641	4413.333333	3717.435897	4380.000000	4603.589744	4616.923077	4525.128205	4022.564103	4102.564103	4523.589744	4447.179487	4267.179487	3956.923077	1736.000000	1678.000000	167.778000	0.000000	0.000000	0.000000	0.000000	1	1	0	0	0	0	0	0	0	0	0	0	0	0	0	0	0	0	0	1	0.000	0.000
126.000000	4354.358974	4382.051282	4413.846154	3716.923077	4380.512821	4601.025641	4616.923077	4525.641026	4022.051282	4104.615385	4523.589744	4450.256410	4266.666667	3954.358974	1736.000000	1677.000000	167.781000	0.000000	0.000000	0.000000	0.000000	1	1	0	0	0	0	0	0	0	0	0	0	0	0	0	0	0	0	0	1	0.000	0.000
127.000000	4358.461538	4383.076923	4412.307692	3714.358974	4382.564103	4603.589744	4614.871795	4523.589744	4024.102564	4107.179487	4523.589744	4454.871795	4265.641026	3956.410256	1736.000000	1678.000000	167.788000	0.000000	0.000000	0.000000	0.000000	1	1	0	0	0	0	0	0	0	0	0	0	0	0	0	0	0	0	0	1	0.000	0.000
128.000000	4356.923077	4382.564103	4413.846154	3713.846154	4381.538462	4603.589744	4614.358974	4521.538462	4023.589744	4105.641026	4524.102564	4453.333333	4266.153846	3956.410256	1737.000000	1677.000000	167.796000	0.000000	0.000000	0.000000	0.000000	1	1	0	0	0	0	0	0	0	0	0	0	0	0	0	0	0	0	0	1	0.000	0.000
0.000000	4354.358974	4382.564103	4413.846154	3715.384615	4382.564103	4600.000000	4615.897436	4523.076923	4023.076923	4104.615385	4525.641026	4449.743590	4266.666667	3953.846154	1736.000000	1678.000000	167.809000	0.000000	0.000000	0.000000	0.000000	1	1	0	0	0	0	0	0	0	0	0	0	0	0	0	0	0	0	0	1	0.000	0.000
1.000000	4355.897436	4382.051282	4413.333333	3715.897436	4384.102564	4597.948718	4612.307692	4521.538462	4023.076923	4106.666667	4523.589744	4453.846154	4266.153846	3956.410256	1737.000000	1678.000000	167.811000	0.000000	0.000000	0.000000	0.000000	1	1	0	0	0	0	0	0	0	0	0	0	0	0	0	0	0	0	0	1	0.000	0.000
2.000000	4356.923077	4382.051282	4413.846154	3714.871795	4383.589744	4601.538462	4609.743590	4521.025641	4023.589744	4106.153846	4520.512821	4455.897436	4265.128205	3958.461538	1737.000000	1678.000000	167.820000	0.000000	0.000000	0.000000	0.000000	1	1	0	0	0	0	0	0	0	0	0	0	0	0	0	0	0	0	0	1	0.000	0.000
3.000000	4354.358974	4382.051282	4416.410256	3713.846154	4382.564103	4603.076923	4612.307692	4523.589744	4022.564103	4101.538462	4524.102564	4454.358974	4264.615385	3954.871795	1736.000000	1677.000000	167.827000	0.000000	0.000000	0.000000	0.000000	1	1	0	0	0	0	0	0	0	0	0	0	0	0	0	0	0	0	0	1	0.000	0.000
4.000000	4353.333333	4382.051282	4416.410256	3714.871795	4384.102564	4602.051282	4615.384615	4524.615385	4022.564103	4100.512821	4526.666667	4451.282051	4265.128205	3953.846154	1736.000000	1679.000000	167.842000	0.000000	0.000000	0.000000	0.000000	1	1	0	0	0	0	0	0	0	0	0	0	0	0	0	0	0	0	0	1	0.000	0.000
5.000000	4353.846154	4380.000000	4414.358974	3714.358974	4383.589744	4601.025641	4613.846154	4523.589744	4022.564103	4104.615385	4524.102564	4452.307692	4266.153846	3956.923077	1737.000000	1677.000000	167.842000	0.000000	0.000000	0.000000	0.000000	1	1	0	0	0	0	0	0	0	0	0	0	0	0	0	0	0	0	0	1	0.000	0.000
6.000000	4354.871795	4380.512821	4411.282051	3714.358974	4382.051282	4601.538462	4612.820513	4523.589744	4020.512821	4105.128205	4525.128205	4452.820513	4265.641026	3955.384615	1735.000000	1678.000000	167.850000	0.000000	0.000000	0.000000	0.000000	1	1	0	0	0	0	0	0	0	0	0	0	0	0	0	0	0	0	0	1	0.000	0.000
7.000000	4355.384615	4382.051282	4411.794872	3714.358974	4383.589744	4603.076923	4611.282051	4523.589744	4020.000000	4102.564103	4528.205128	4452.307692	4265.641026	3953.846154	1738.000000	1678.000000	167.858000	0.000000	0.000000	0.000000	0.000000	1	1	0	0	0	0	0	0	0	0	0	0	0	0	0	0	0	0	0	1	0.000	0.000
8.000000	4355.384615	4382.564103	4413.846154	3714.871795	4386.666667	4603.076923	4612.307692	4522.564103	4024.102564	4103.076923	4524.615385	4451.794872	4266.666667	3958.461538	1737.000000	1677.000000	167.872000	0.000000	0.000000	0.000000	0.000000	1	1	0	0	0	0	0	0	0	0	0	0	0	0	0	0	0	0	0	1	0.000	0.000
9.000000	4354.871795	4382.564103	4411.794872	3712.820513	4387.179487	4600.000000	4615.897436	4524.102564	4023.589744	4104.102564	4522.051282	4451.794872	4265.641026	3959.487179	1736.000000	1679.000000	167.874000	0.000000	0.000000	0.000000	0.000000	1	1	0	0	0	0	0	0	0	0	0	0	0	0	0	0	0	0	0	1	0.000	0.000
10.000000	4353.846154	4384.102564	4408.717949	3712.307692	4386.666667	4602.564103	4618.461538	4524.102564	4017.948718	4104.615385	4525.128205	4447.692308	4265.641026	3954.358974	1737.000000	1677.000000	167.882000	0.000000	0.000000	0.000000	0.000000	1	1	0	0	0	0	0	0	0	0	0	0	0	0	0	0	0	0	0	1	0.000	0.000
11.000000	4353.846154	4385.641026	4412.307692	3714.358974	4383.589744	4606.666667	4616.923077	4522.051282	4018.974359	4104.615385	4525.128205	4443.589744	4266.666667	3954.358974	1736.000000	1678.000000	167.889000	0.000000	0.000000	0.000000	0.000000	1	1	0	0	0	0	0	0	0	0	0	0	0	0	0	0	0	0	0	1	0.000	0.000
12.000000	4355.384615	4385.641026	4413.333333	3716.923077	4382.051282	4604.615385	4614.358974	4522.051282	4022.564103	4104.102564	4523.589744	4447.692308	4266.153846	3956.923077	1737.000000	1678.000000	167.902000	0.000000	0.000000	0.000000	0.000000	1	1	0	0	0	0	0	0	0	0	0	0	0	0	0	0	0	0	0	1	0.000	0.000
13.000000	4354.871795	4385.641026	4409.230769	3715.897436	4383.589744	4602.051282	4613.846154	4523.589744	4022.051282	4104.615385	4525.641026	4448.717949	4265.641026	3954.871795	1736.000000	1678.000000	167.905000	0.000000	0.000000	0.000000	0.000000	1	1	0	0	0	0	0	0	0	0	0	0	0	0	0	0	0	0	0	1	0.000	0.000
14.000000	4354.358974	4385.128205	4411.282051	3716.410256	4382.564103	4602.051282	4612.820513	4522.051282	4021.538462	4104.615385	4526.153846	4446.666667	4265.641026	3953.333333	1737.000000	1678.000000	167.913000	0.000000	0.000000	0.000000	0.000000	1	1	0	0	0	0	0	0	0	0	0	0	0	0	0	0	0	0	0	1	0.000	0.000
15.000000	4357.948718	4385.128205	4412.307692	3717.948718	4380.000000	4601.025641	4614.871795	4520.512821	4024.102564	4104.615385	4523.076923	4449.230769	4265.641026	3956.410256	1736.000000	1678.000000	167.921000	0.000000	0.000000	0.000000	0.000000	1	1	0	0	0	0	0	0	0	0	0	0	0	0	0	0	0	0	0	1	0.000	0.000
16.000000	4358.461538	4383.589744	4407.692308	3715.897436	4381.538462	4602.051282	4616.923077	4523.076923	4023.076923	4104.102564	4523.076923	4451.282051	4265.641026	3956.410256	1737.000000	1678.000000	167.933000	0.000000	0.000000	0.000000	0.000000	1	1	0	0	0	0	0	0	0	0	0	0	0	0	0	0	0	0	0	1	0.000	0.000
17.000000	4354.871795	4384.102564	4408.205128	3715.384615	4384.102564	4605.128205	4616.410256	4523.589744	4019.487179	4104.615385	4523.076923	4446.666667	4265.641026	3953.846154	1736.000000	1678.000000	167.936000	0.000000	0.000000	0.000000	0.000000	1	1	0	0	0	0	0	0	0	0	0	0	0	0	0	0	0	0	0	1	0.000	0.000
18.000000	4352.820513	4383.589744	4413.846154	3714.358974	4382.564103	4602.051282	4613.333333	4520.000000	4020.000000	4104.102564	4524.102564	4448.717949	4265.641026	3953.846154	1738.000000	1678.000000	167.944000	0.000000	0.000000	0.000000	0.000000	1	1	0	0	0	0	0	0	0	0	0	0	0	0	0	0	0	0	0	1	0.000	0.000
19.000000	4355.384615	4385.641026	4411.282051	3711.794872	4382.564103	4599.487179	4613.846154	4522.051282	4023.076923	4104.615385	4524.102564	4449.230769	4266.153846	3955.384615	1736.000000	1677.000000	167.953000	0.000000	0.000000	0.000000	0.000000	1	1	0	0	0	0	0	0	0	0	0	0	0	0	0	0	0	0	0	1	0.000	0.000
20.000000	4355.384615	4387.692308	4409.230769	3714.358974	4383.076923	4603.076923	4615.897436	4524.615385	4022.564103	4104.102564	4521.538462	4444.102564	4265.128205	3955.384615	1736.000000	1679.000000	167.967000	0.000000	0.000000	0.000000	0.000000	1	1	0	0	0	0	0	0	0	0	0	0	0	0	0	0	0	0	0	1	0.000	0.000
21.000000	4353.333333	4387.179487	4410.256410	3716.410256	4383.076923	4605.128205	4616.923077	4523.076923	4020.512821	4104.615385	4521.538462	4442.564103	4265.641026	3953.846154	1737.000000	1677.000000	167.968000	0.000000	0.000000	0.000000	0.000000	1	1	0	0	0	0	0	0	0	0	0	0	0	0	0	0	0	0	0	1	0.000	0.000
22.000000	4352.307692	4385.128205	4410.769231	3713.846154	4383.076923	4601.025641	4616.410256	4523.076923	4021.538462	4104.615385	4522.564103	4446.153846	4267.179487	3954.871795	1735.000000	1679.000000	167.974000	0.000000	0.000000	0.000000	0.000000	1	1	0	0	0	0	0	0	0	0	0	0	0	0	0	0	0	0	0	1	0.000	0.000
23.000000	4354.871795	4383.076923	4411.282051	3713.333333	4384.102564	4602.564103	4617.435897	4525.641026	4023.589744	4104.615385	4520.512821	4446.153846	4266.153846	3957.435897	1736.000000	1678.000000	167.983000	0.000000	0.000000	0.000000	0.000000	1	1	0	0	0	0	0	0	0	0	0	0	0	0	0	0	0	0	0	1	0.000	0.000
24.000000	4357.948718	4383.076923	4412.820513	3714.358974	4385.128205	4607.179487	4616.923077	4523.589744	4024.102564	4104.102564	4521.538462	4446.666667	4264.615385	3956.923077	1735.000000	1679.000000	167.996000	0.000000	0.000000	0.000000	0.000000	1	1	0	0	0	0	0	0	0	0	0	0	0	0	0	0	0	0	0	1	0.000	0.000
25.000000	4357.435897	4387.179487	4410.256410	3713.846154	4385.641026	4604.615385	4615.384615	4521.025641	4025.128205	4104.615385	4524.102564	4445.641026	4267.179487	3954.871795	1736.000000	1678.000000	167.999000	0.000000	0.000000	0.000000	0.000000	1	1	0	0	0	0	0	0	0	0	0	0	0	0	0	0	0	0	0	1	0.000	0.000
26.000000	4355.384615	4388.205128	4406.666667	3715.897436	4385.128205	4603.589744	4617.435897	4523.076923	4025.128205	4105.128205	4522.564103	4444.102564	4267.692308	3954.358974	1736.000000	1677.000000	168.006000	0.000000	0.000000	0.000000	0.000000	1	1	0	0	0	0	0	0	0	0	0	0	0	0	0	0	0	0	0	1	0.000	0.000
27.000000	4357.435897	4387.692308	4407.179487	3715.897436	4384.615385	4611.794872	4622.564103	4523.589744	4023.076923	4101.538462	4522.051282	4443.076923	4265.128205	3956.410256	1737.000000	1677.000000	168.015000	0.000000	0.000000	0.000000	0.000000	1	1	0	0	0	0	0	0	0	0	0	0	0	0	0	0	0	0	0	1	0.000	0.000
28.000000	4361.025641	4391.282051	4407.692308	3712.307692	4385.128205	4613.846154	4622.051282	4524.102564	4021.538462	4096.923077	4522.051282	4440.000000	4265.128205	3957.435897	1736.000000	1677.000000	168.028000	0.000000	0.000000	0.000000	0.000000	1	1	0	0	0	0	0	0	0	0	0	0	0	0	0	0	0	0	0	1	0.000	0.000
29.000000	4361.025641	4394.358974	4406.153846	3713.333333	4385.128205	4608.205128	4622.051282	4524.615385	4024.102564	4099.487179	4520.512821	4438.461538	4266.666667	3954.358974	1737.000000	1678.000000	168.031000	0.000000	0.000000	0.000000	0.000000	1	1	0	0	0	0	0	0	0	0	0	0	0	0	0	0	0	0	0	1	0.000	0.000
30.000000	4360.512821	4395.384615	4404.615385	3715.384615	4385.128205	4609.743590	4627.692308	4525.128205	4024.615385	4104.102564	4517.948718	4434.871795	4264.102564	3949.743590	1737.000000	1679.000000	168.039000	0.000000	0.000000	0.000000	0.000000	1	1	0	0	0	0	0	0	0	0	0	0	0	0	0	0	0	0	0	1	0.000	0.000
31.000000	4361.025641	4395.897436	4402.564103	3713.333333	4386.153846	4614.358974	4629.230769	4524.102564	4021.025641	4104.615385	4517.948718	4431.794872	4267.179487	3951.282051	1737.000000	1678.000000	168.047000	0.000000	0.000000	0.000000	0.000000	1	1	0	0	0	0	0	0	0	0	0	0	0	0	0	0	0	0	0	1	0.000	0.000
32.000000	4361.025641	4396.923077	4398.461538	3712.820513	4388.717949	4614.358974	4628.717949	4524.615385	4022.051282	4104.102564	4517.948718	4431.282051	4272.307692	3956.410256	1736.000000	1678.000000	168.061000	0.000000	0.000000	0.000000	0.000000	1	1	0	0	0	0	0	0	0	0	0	0	0	0	0	0	0	0	0	1	0.000	0.000
33.000000	4358.974359	4396.410256	4398.974359	3712.820513	4387.179487	4613.846154	4632.307692	4524.102564	4023.589744	4104.615385	4518.461538	4431.282051	4270.769231	3955.384615	1737.000000	1678.000000	168.061000	0.000000	0.000000	0.000000	0.000000	1	1	0	0	0	0	0	0	0	0	0	0	0	0	0	0	0	0	0	1	0.000	0.000
34.000000	4359.487179	4396.923077	4400.512821	3711.282051	4386.153846	4619.487179	4634.871795	4524.615385	4021.538462	4103.076923	4518.974359	4426.153846	4272.307692	3949.230769	1736.000000	1678.000000	168.070000	0.000000	0.000000	0.000000	0.000000	1	1	0	0	0	0	0	0	0	0	0	0	0	0	0	0	0	0	0	1	0.000	0.000
35.000000	4361.538462	4395.897436	4398.461538	3711.794872	4387.692308	4622.051282	4633.333333	4525.128205	4020.512821	4103.589744	4518.974359	4427.692308	4273.333333	3951.282051	1736.000000	1677.000000	168.078000	0.000000	0.000000	0.000000	0.000000	1	1	0	0	0	0	0	0	0	0	0	0	0	0	0	0	0	0	0	1	0.000	0.000
36.000000	4363.076923	4397.435897	4394.871795	3714.358974	4388.205128	4621.025641	4636.410256	4526.153846	4023.589744	4106.153846	4516.923077	4429.230769	4265.641026	3957.435897	1736.000000	1678.000000	168.092000	0.000000	0.000000	0.000000	0.000000	1	1	0	0	0	0	0	0	0	0	0	0	0	0	0	0	0	0	0	1	0.000	0.000
37.000000	4362.564103	4400.000000	4394.358974	3712.820513	4385.641026	4619.487179	4638.974359	4526.666667	4024.102564	4103.589744	4516.923077	4428.205128	4264.615385	3956.410256	1737.000000	1678.000000	168.093000	0.000000	0.000000	0.000000	0.000000	1	1	0	0	0	0	0	0	0	0	0	0	0	0	0	0	0	0	0	1	0.000	0.000
38.000000	4360.512821	4400.000000	4394.358974	3712.307692	4385.128205	4622.051282	4639.487179	4528.205128	4025.128205	4103.076923	4518.461538	4427.179487	4273.333333	3953.333333	1735.000000	1677.000000	168.100000	0.000000	0.000000	0.000000	0.000000	1	1	0	0	0	0	0	0	0	0	0	0	0	0	0	0	0	0	0	1	0.000	0.000
39.000000	4360.000000	4397.435897	4393.333333	3714.358974	4385.128205	4623.589744	4638.461538	4521.538462	4020.000000	4101.025641	4513.333333	4422.564103	4269.743590	3951.794872	1737.000000	1680.000000	168.108000	0.000000	0.000000	0.000000	0.000000	1	1	0	0	0	0	0	0	0	0	0	0	0	0	0	0	0	0	0	1	0.000	0.000
40.000000	4362.564103	4397.948718	4396.410256	3713.846154	4385.128205	4623.076923	4641.538462	4534.871795	4028.717949	4112.307692	4515.384615	4426.666667	4270.256410	3960.512821	1737.000000	1677.000000	168.120000	0.000000	0.000000	0.000000	0.000000	1	1	0	0	0	0	0	0	0	0	0	0	0	0	0	0	0	0	0	1	0.000	0.000
41.000000	4362.564103	4397.948718	4396.923077	3711.282051	4386.666667	4621.538462	4644.615385	4538.974359	4032.820513	4107.692308	4513.846154	4427.179487	4270.256410	3957.435897	1735.000000	1679.000000	168.124000	0.000000	0.000000	0.000000	0.000000	1	1	0	0	0	0	0	0	0	0	0	0	0	0	0	0	0	0	0	1	0.000	0.000
42.000000	4358.461538	4394.358974	4387.179487	3712.307692	4386.666667	4621.538462	4642.564103	4494.358974	3998.974359	4070.769231	4500.000000	4407.179487	4255.384615	3933.333333	1737.000000	1678.000000	168.132000	0.000000	0.000000	0.000000	0.000000	1	1	0	0	0	0	0	0	0	0	0	0	0	0	0	0	0	0	0	1	0.000	0.000
43.000000	4360.512821	4395.897436	4389.743590	3714.358974	4384.102564	4625.128205	4641.538462	4525.641026	4022.564103	4104.102564	4517.435897	4421.025641	4269.230769	3952.820513	1736.000000	1678.000000	168.140000	0.000000	0.000000	0.000000	0.000000	1	1	0	0	0	0	0	0	0	0	0	0	0	0	0	0	0	0	0	1	0.000	0.000
44.000000	4355.897436	4393.846154	4385.641026	3706.153846	4382.051282	4621.538462	4636.410256	4460.512821	3973.846154	4049.743590	4491.282051	4391.794872	4241.025641	3920.000000	1737.000000	1677.000000	168.152000	0.000000	0.000000	0.000000	0.000000	1	1	0	0	0	0	0	0	0	0	0	0	0	0	0	0	0	0	0	1	0.000	0.000
45.000000	4350.769231	4389.230769	4380.512821	3704.615385	4384.615385	4618.974359	4636.923077	4409.230769	3932.307692	4019.487179	4472.820513	4373.333333	4228.717949	3899.487179	1736.000000	1677.000000	168.156000	0.000000	0.000000	0.000000	0.000000	1	1	0	0	0	0	0	0	0	0	0	0	0	0	0	0	0	0	0	1	0.000	0.000
46.000000	4353.333333	4390.256410	4380.000000	3709.230769	4384.615385	4619.487179	4639.487179	4438.461538	3950.256410	4052.820513	4485.641026	4387.692308	4243.076923	3913.333333	1737.000000	1678.000000	168.163000	0.000000	0.000000	0.000000	0.000000	1	1	0	0	0	0	0	0	0	0	0	0	0	0	0	0	0	0	0	1	0.000	0.000
47.000000	4357.435897	4395.384615	4387.692308	3708.717949	4382.564103	4620.000000	4640.000000	4468.717949	3967.692308	4075.897436	4494.871795	4400.512821	4252.307692	3927.179487	1736.000000	1678.000000	168.171000	0.000000	0.000000	0.000000	0.000000	1	1	0	0	0	0	0	0	0	0	0	0	0	0	0	0	0	0	0	1	0.000	0.000
48.000000	4354.871795	4391.282051	4391.282051	3705.128205	4380.512821	4617.948718	4638.461538	4444.615385	3950.256410	4053.333333	4484.102564	4392.820513	4242.564103	3914.871795	1737.000000	1678.000000	168.184000	0.000000	0.000000	0.000000	0.000000	1	1	0	0	0	0	0	0	0	0	0	0	0	0	0	0	0	0	0	1	0.000	0.000
49.000000	4354.871795	4390.769231	4390.769231	3709.230769	4382.051282	4620.000000	4642.051282	4462.051282	3964.102564	4072.307692	4495.897436	4402.051282	4254.871795	3927.692308	1736.000000	1678.000000	168.188000	0.000000	0.000000	0.000000	0.000000	1	1	0	0	0	0	0	0	0	0	0	0	0	0	0	0	0	0	0	1	0.000	0.000
50.000000	4356.923077	4395.897436	4392.820513	3712.307692	4385.641026	4619.487179	4645.128205	4498.974359	3994.871795	4100.000000	4511.282051	4418.974359	4266.153846	3945.641026	1737.000000	1679.000000	168.194000	0.000000	0.000000	0.000000	0.000000	1	1	0	0	0	0	0	0	0	0	0	0	0	0	0	0	0	0	0	1	0.000	0.000
51.000000	4354.358974	4393.333333	4391.794872	3706.666667	4386.153846	4616.923077	4642.051282	4463.589744	3969.230769	4067.692308	4496.923077	4399.487179	4250.769231	3924.615385	1736.000000	1677.000000	168.202000	0.000000	0.000000	0.000000	0.000000	1	1	0	0	0	0	0	0	0	0	0	0	0	0	0	0	0	0	0	1	0.000	0.000
52.000000	4354.871795	4389.230769	4398.461538	3707.692308	4382.564103	4619.487179	4642.051282	4492.307692	3993.333333	4097.435897	4507.179487	4412.820513	4262.051282	3938.461538	1735.000000	1679.000000	168.214000	0.000000	0.000000	0.000000	0.000000	1	1	0	0	0	0	0	0	0	0	0	0	0	0	0	0	0	0	0	1	0.000	0.000
53.000000	4355.384615	4389.230769	4394.358974	3707.179487	4381.025641	4619.487179	4643.076923	4484.615385	3989.230769	4089.230769	4504.615385	4411.794872	4255.897436	3932.820513	1737.000000	1678.000000	168.219000	0.000000	0.000000	0.000000	0.000000	1	1	0	0	0	0	0	0	0	0	0	0	0	0	0	0	0	0	0	1	0.000	0.000
54.000000	4352.820513	4389.230769	4396.410256	3705.128205	4384.102564	4615.897436	4644.615385	4491.282051	3994.871795	4092.820513	4509.230769	4422.051282	4259.487179	3938.461538	1736.000000	1678.000000	168.226000	0.000000	0.000000	0.000000	0.000000	1	1	0	0	0	0	0	0	0	0	0	0	0	0	0	0	0	0	0	1	0.000	0.000
55.000000	4352.307692	4386.153846	4401.025641	3706.666667	4384.102564	4615.384615	4641.538462	4504.102564	4007.179487	4098.461538	4511.794872	4425.641026	4263.076923	3942.564103	1736.000000	1678.000000	168.233000	0.000000	0.000000	0.000000	0.000000	1	1	0	0	0	0	0	0	0	0	0	0	0	0	0	0	0	0	0	1	0.000	0.000
56.000000	4356.410256	4384.615385	4401.538462	3711.282051	4381.538462	4616.410256	4636.923077	4501.025641	4004.615385	4094.358974	4510.256410	4422.564103	4262.051282	3941.538462	1736.000000	1678.000000	168.247000	0.000000	0.000000	0.000000	0.000000	1	1	0	0	0	0	0	0	0	0	0	0	0	0	0	0	0	0	0	1	0.000	0.000
57.000000	4355.897436	4386.153846	4403.589744	3712.307692	4384.102564	4614.871795	4635.897436	4513.333333	4015.897436	4104.615385	4515.897436	4431.282051	4264.615385	3947.692308	1736.000000	1678.000000	168.250000	0.000000	0.000000	0.000000	0.000000	1	1	0	0	0	0	0	0	0	0	0	0	0	0	0	0	0	0	0	1	0.000	0.000
58.000000	4350.256410	4386.666667	4404.615385	3708.717949	4384.102564	4612.820513	4634.358974	4510.256410	4015.897436	4103.076923	4513.846154	4432.820513	4262.564103	3944.615385	1736.000000	1678.000000	168.258000	0.000000	0.000000	0.000000	0.000000	1	1	0	0	0	0	0	0	0	0	0	0	0	0	0	0	0	0	0	1	0.000	0.000
59.000000	4351.794872	4385.641026	4407.179487	3708.717949	4381.025641	4614.871795	4633.333333	4518.974359	4020.000000	4108.717949	4515.384615	4434.871795	4269.230769	3948.717949	1736.000000	1678.000000	168.266000	0.000000	0.000000	0.000000	0.000000	1	1	0	0	0	0	0	0	0	0	0	0	0	0	0	0	0	0	0	1	0.000	0.000
60.000000	4352.307692	4384.615385	4405.641026	3709.230769	4381.538462	4615.897436	4633.846154	4520.000000	4022.051282	4105.128205	4516.923077	4435.384615	4270.769231	3947.179487	1736.000000	1677.000000	168.278000	0.000000	0.000000	0.000000	0.000000	1	1	0	0	0	0	0	0	0	0	0	0	0	0	0	0	0	0	0	1	0.000	0.000
61.000000	4351.282051	4386.666667	4403.589744	3709.743590	4386.153846	4612.820513	4635.384615	4519.487179	4026.153846	4105.641026	4517.948718	4437.948718	4267.179487	3947.179487	1736.000000	1679.000000	168.280000	0.000000	0.000000	0.000000	0.000000	1	1	0	0	0	0	0	0	0	0	0	0	0	0	0	0	0	0	0	1	0.000	0.000
62.000000	4352.307692	4386.666667	4404.102564	3710.769231	4384.102564	4611.794872	4634.871795	4518.461538	4023.076923	4104.615385	4518.461538	4435.384615	4264.102564	3947.179487	1736.000000	1678.000000	168.289000	0.000000	0.000000	0.000000	0.000000	1	1	0	0	0	0	0	0	0	0	0	0	0	0	0	0	0	0	0	1	0.000	0.000
63.000000	4353.333333	4385.128205	4406.666667	3712.307692	4378.461538	4613.333333	4635.384615	4517.948718	4021.538462	4104.615385	4518.461538	4434.358974	4266.153846	3949.230769	1735.000000	1678.000000	168.297000	0.000000	0.000000	0.000000	0.000000	1	1	0	0	0	0	0	0	0	0	0	0	0	0	0	0	0	0	0	1	0.000	0.000
64.000000	4353.846154	4387.692308	4403.589744	3711.282051	4380.000000	4613.846154	4636.410256	4516.923077	4026.666667	4105.128205	4517.435897	4434.358974	4267.692308	3950.769231	1737.000000	1678.000000	168.310000	0.000000	0.000000	0.000000	0.000000	1	1	0	0	0	0	0	0	0	0	0	0	0	0	0	0	0	0	0	1	0.000	0.000
65.000000	4356.923077	4389.230769	4398.974359	3709.743590	4384.615385	4612.820513	4635.897436	4515.384615	4027.692308	4104.102564	4517.435897	4433.333333	4265.128205	3950.256410	1735.000000	1677.000000	168.312000	0.000000	0.000000	0.000000	0.000000	1	1	0	0	0	0	0	0	0	0	0	0	0	0	0	0	0	0	0	1	0.000	0.000
66.000000	4357.948718	4387.179487	4404.102564	3712.307692	4383.589744	4613.846154	4635.897436	4523.076923	4028.205128	4108.717949	4518.974359	4432.820513	4262.564103	3950.769231	1736.000000	1678.000000	168.318000	0.000000	0.000000	0.000000	0.000000	1	1	0	0	0	0	0	0	0	0	0	0	0	0	0	0	0	0	0	1	0.000	0.000
67.000000	4353.333333	4385.641026	4407.179487	3712.307692	4380.512821	4614.871795	4635.897436	4518.974359	4026.153846	4104.615385	4516.410256	4433.846154	4263.076923	3948.205128	1736.000000	1678.000000	168.327000	0.000000	0.000000	0.000000	0.000000	1	1	0	0	0	0	0	0	0	0	0	0	0	0	0	0	0	0	0	1	0.000	0.000
68.000000	4352.307692	4387.692308	4402.564103	3709.230769	4382.051282	4616.410256	4636.923077	4511.794872	4024.102564	4098.974359	4514.358974	4431.282051	4267.692308	3948.205128	1736.000000	1678.000000	168.340000	0.000000	0.000000	0.000000	0.000000	1	1	0	0	0	0	0	0	0	0	0	0	0	0	0	0	0	0	0	1	0.000	0.000
69.000000	4354.871795	4387.179487	4404.102564	3710.256410	4381.538462	4614.871795	4635.897436	4518.461538	4026.153846	4106.666667	4517.948718	4434.871795	4271.794872	3952.307692	1736.000000	1678.000000	168.343000	0.000000	0.000000	0.000000	0.000000	1	1	0	0	0	0	0	0	0	0	0	0	0	0	0	0	0	0	0	1	0.000	0.000
70.000000	4356.410256	4385.641026	4405.641026	3713.846154	4381.025641	4613.333333	4636.410256	4517.948718	4022.051282	4105.641026	4516.410256	4434.358974	4266.153846	3949.230769	1736.000000	1678.000000	168.351000	0.000000	0.000000	0.000000	0.000000	1	1	0	0	0	0	0	0	0	0	0	0	0	0	0	0	0	0	0	1	0.000	0.000
71.000000	4355.384615	4384.615385	4405.641026	3713.333333	4382.051282	4614.871795	4636.923077	4523.589744	4028.717949	4108.205128	4519.487179	4436.923077	4266.153846	3953.333333	1736.000000	1678.000000	168.359000	0.000000	0.000000	0.000000	0.000000	1	1	0	0	0	0	0	0	0	0	0	0	0	0	0	0	0	0	0	1	0.000	0.000
72.000000	4353.333333	4385.128205	4405.128205	3711.794872	4384.102564	4614.871795	4634.871795	4521.025641	4029.230769	4108.205128	4520.512821	4436.923077	4268.717949	3952.820513	1736.000000	1679.000000	168.373000	0.000000	0.000000	0.000000	0.000000	1	1	0	0	0	0	0	0	0	0	0	0	0	0	0	0	0	0	0	1	0.000	0.000
73.000000	4352.820513	4386.153846	4405.641026	3711.794872	4385.128205	4611.794872	4630.769231	4521.025641	4028.205128	4109.230769	4521.025641	4441.025641	4270.769231	3950.769231	1738.000000	1677.000000	168.375000	0.000000	0.000000	0.000000	0.000000	1	1	0	0	0	0	0	0	0	0	0	0	0	0	0	0	0	0	0	1	0.000	0.000
74.000000	4353.333333	4386.666667	4405.641026	3709.743590	4384.615385	4609.743590	4630.256410	4524.615385	4032.307692	4108.205128	4520.512821	4441.538462	4269.230769	3950.769231	1736.000000	1678.000000	168.382000	0.000000	0.000000	0.000000	0.000000	1	1	0	0	0	0	0	0	0	0	0	0	0	0	0	0	0	0	0	1	0.000	0.000
75.000000	4355.384615	4386.666667	4407.692308	3709.743590	4385.128205	4611.794872	4633.846154	4528.205128	4034.358974	4108.205128	4520.000000	4439.487179	4268.205128	3954.871795	1737.000000	1678.000000	168.390000	0.000000	0.000000	0.000000	0.000000	1	1	0	0	0	0	0	0	0	0	0	0	0	0	0	0	0	0	0	1	0.000	0.000
76.000000	4355.384615	4384.615385	4410.256410	3710.769231	4384.615385	4611.282051	4632.820513	4525.641026	4031.794872	4106.666667	4521.538462	4438.974359	4266.153846	3957.435897	1736.000000	1677.000000	168.404000	0.000000	0.000000	0.000000	0.000000	1	1	0	0	0	0	0	0	0	0	0	0	0	0	0	0	0	0	0	1	0.000	0.000
77.000000	4354.871795	4382.564103	4410.256410	3710.256410	4385.641026	4609.230769	4629.230769	4526.153846	4036.923077	4112.307692	4524.102564	4444.102564	4268.717949	3960.000000	1737.000000	1678.000000	168.405000	0.000000	0.000000	0.000000	0.000000	1	1	0	0	0	0	0	0	0	0	0	0	0	0	0	0	0	0	0	1	0.000	0.000
78.000000	4354.871795	4382.051282	4410.769231	3712.820513	4385.128205	4607.179487	4627.692308	4534.358974	4045.128205	4120.512821	4525.128205	4450.256410	4271.282051	3961.538462	1736.000000	1678.000000	168.413000	0.000000	0.000000	0.000000	0.000000	1	1	0	0	0	0	0	0	0	0	0	0	0	0	0	0	0	0	0	1	0.000	0.000
79.000000	4354.871795	4383.589744	4409.743590	3714.871795	4383.076923	4608.205128	4628.205128	4532.820513	4038.461538	4115.897436	4524.102564	4447.179487	4269.230769	3958.461538	1736.000000	1679.000000	168.421000	0.000000	0.000000	0.000000	0.000000	1	1	0	0	0	0	0	0	0	0	0	0	0	0	0	0	0	0	0	1	0.000	0.000
80.000000	4355.897436	4384.102564	4412.820513	3712.820513	4381.538462	4610.256410	4627.179487	4544.102564	4045.128205	4125.641026	4532.820513	4455.897436	4274.358974	3963.589744	1737.000000	1678.000000	168.434000	0.000000	0.000000	0.000000	0.000000	1	1	0	0	0	0	0	0	0	0	0	0	0	0	0	0	0	0	0	1	0.000	0.000
81.000000	4356.410256	4383.076923	4413.333333	3710.256410	4384.102564	4607.692308	4626.666667	4540.000000	4046.666667	4122.564103	4531.794872	4453.333333	4272.307692	3961.538462	1737.000000	1678.000000	168.437000	0.000000	0.000000	0.000000	0.000000	1	1	0	0	0	0	0	0	0	0	0	0	0	0	0	0	0	0	0	1	0.000	0.000
82.000000	4356.923077	4383.589744	4413.333333	3712.820513	4383.589744	4605.641026	4629.743590	4549.230769	4054.358974	4124.615385	4531.794872	4456.410256	4275.384615	3970.256410	1736.000000	1677.000000	168.445000	0.000000	0.000000	0.000000	0.000000	1	1	0	0	0	0	0	0	0	0	0	0	0	0	0	0	0	0	0	1	0.000	0.000
83.000000	4357.435897	4384.102564	4411.282051	3714.871795	4382.051282	4608.205128	4632.820513	4556.923077	4060.000000	4127.179487	4532.820513	4457.948718	4278.974359	3972.307692	1736.000000	1678.000000	168.453000	0.000000	0.000000	0.000000	0.000000	1	1	0	0	0	0	0	0	0	0	0	0	0	0	0	0	0	0	0	1	0.000	0.000
84.000000	4356.410256	4384.102564	4412.820513	3713.333333	4383.589744	4609.743590	4631.794872	4543.589744	4051.794872	4120.000000	4528.205128	4453.846154	4274.358974	3963.589744	1737.000000	1678.000000	168.466000	0.000000	0.000000	0.000000	0.000000	1	1	0	0	0	0	0	0	0	0	0	0	0	0	0	0	0	0	0	1	0.000	0.000
85.000000	4356.410256	4386.153846	4412.307692	3709.743590	4384.102564	4607.692308	4630.256410	4540.512821	4048.205128	4117.435897	4524.615385	4451.282051	4269.743590	3964.615385	1737.000000	1678.000000	168.468000	0.000000	0.000000	0.000000	0.000000	1	1	0	0	0	0	0	0	0	0	0	0	0	0	0	0	0	0	0	1	0.000	0.000
86.000000	4355.897436	4386.666667	4408.717949	3711.794872	4382.564103	4607.179487	4629.230769	4542.564103	4046.153846	4117.948718	4525.641026	4450.769231	4272.820513	3967.179487	1736.000000	1678.000000	168.476000	0.000000	0.000000	0.000000	0.000000	1	1	0	0	0	0	0	0	0	0	0	0	0	0	0	0	0	0	0	1	0.000	0.000
87.000000	4356.923077	4386.666667	4406.666667	3717.435897	4383.589744	4609.743590	4630.256410	4534.358974	4040.000000	4113.333333	4524.615385	4444.615385	4271.794872	3959.487179	1736.000000	1678.000000	168.485000	0.000000	0.000000	0.000000	0.000000	1	1	0	0	0	0	0	0	0	0	0	0	0	0	0	0	0	0	0	1	0.000	0.000
88.000000	4355.897436	4386.153846	4406.666667	3714.871795	4383.076923	4607.692308	4629.230769	4520.512821	4033.333333	4103.589744	4519.487179	4442.051282	4262.564103	3952.820513	1736.000000	1678.000000	168.496000	0.000000	0.000000	0.000000	0.000000	1	1	0	0	0	0	0	0	0	0	0	0	0	0	0	0	0	0	0	1	0.000	0.000
89.000000	4354.358974	4385.641026	4405.641026	3710.256410	4383.589744	4608.205128	4628.205128	4518.974359	4032.307692	4102.051282	4517.948718	4443.589744	4261.538462	3953.846154	1737.000000	1678.000000	168.499000	0.000000	0.000000	0.000000	0.000000	1	1	0	0	0	0	0	0	0	0	0	0	0	0	0	0	0	0	0	1	0.000	0.000
90.000000	4354.871795	4385.128205	4404.615385	3710.769231	4385.128205	4612.820513	4628.205128	4514.358974	4026.666667	4098.461538	4517.435897	4435.384615	4263.076923	3949.230769	1737.000000	1677.000000	168.508000	0.000000	0.000000	0.000000	0.000000	1	1	0	0	0	0	0	0	0	0	0	0	0	0	0	0	0	0	0	1	0.000	0.000
91.000000	4357.435897	4384.615385	4405.128205	3711.794872	4384.615385	4614.358974	4628.717949	4509.230769	4020.000000	4095.897436	4517.435897	4431.794872	4260.512821	3947.179487	1736.000000	1678.000000	168.515000	0.000000	0.000000	0.000000	0.000000	1	1	0	0	0	0	0	0	0	0	0	0	0	0	0	0	0	0	0	1	0.000	0.000
92.000000	4356.923077	4386.666667	4404.615385	3711.794872	4383.589744	4612.820513	4627.692308	4511.282051	4019.487179	4098.461538	4518.461538	4436.410256	4260.512821	3951.794872	1737.000000	1677.000000	168.530000	0.000000	0.000000	0.000000	0.000000	1	1	0	0	0	0	0	0	0	0	0	0	0	0	0	0	0	0	0	1	0.000	0.000
93.000000	4354.871795	4388.205128	4404.102564	3711.794872	4383.589744	4611.282051	4628.717949	4506.153846	4014.358974	4096.410256	4515.384615	4433.333333	4260.512821	3949.743590	1735.000000	1678.000000	168.532000	0.000000	0.000000	0.000000	0.000000	1	1	0	0	0	0	0	0	0	0	0	0	0	0	0	0	0	0	0	1	0.000	0.000
94.000000	4355.384615	4386.666667	4404.102564	3710.769231	4384.615385	4613.846154	4631.794872	4502.564103	4013.846154	4094.871795	4512.307692	4430.256410	4259.487179	3946.666667	1736.000000	1678.000000	168.539000	0.000000	0.000000	0.000000	0.000000	1	1	0	0	0	0	0	0	0	0	0	0	0	0	0	0	0	0	0	1	0.000	0.000
95.000000	4355.897436	4382.564103	4404.102564	3711.282051	4385.641026	4613.333333	4630.769231	4505.641026	4013.846154	4096.410256	4512.307692	4432.820513	4260.512821	3945.641026	1735.000000	1678.000000	168.547000	0.000000	0.000000	0.000000	0.000000	1	1	0	0	0	0	0	0	0	0	0	0	0	0	0	0	0	0	0	1	0.000	0.000
96.000000	4356.410256	4384.615385	4404.102564	3712.307692	4386.153846	4611.282051	4630.256410	4510.769231	4014.871795	4101.025641	4516.923077	4433.846154	4265.641026	3946.666667	1736.000000	1679.000000	168.561000	0.000000	0.000000	0.000000	0.000000	1	1	0	0	0	0	0	0	0	0	0	0	0	0	0	0	0	0	0	1	0.000	0.000
97.000000	4356.923077	4387.179487	4405.641026	3710.769231	4384.102564	4612.820513	4631.794872	4519.487179	4022.564103	4109.230769	4523.589744	4440.000000	4268.717949	3953.333333	1736.000000	1678.000000	168.563000	0.000000	0.000000	0.000000	0.000000	1	1	0	0	0	0	0	0	0	0	0	0	0	0	0	0	0	0	0	1	0.000	0.000
98.000000	4356.923077	4386.666667	4405.128205	3709.230769	4384.102564	4616.410256	4631.282051	4518.974359	4021.025641	4105.128205	4520.512821	4436.410256	4265.128205	3954.358974	1735.000000	1678.000000	168.571000	0.000000	0.000000	0.000000	0.000000	1	1	0	0	0	0	0	0	0	0	0	0	0	0	0	0	0	0	0	1	0.000	0.000
99.000000	4357.435897	4385.641026	4407.179487	3711.282051	4384.102564	4615.384615	4629.230769	4528.205128	4029.230769	4111.794872	4523.076923	4438.461538	4270.769231	3958.461538	1736.000000	1678.000000	168.578000	0.000000	0.000000	0.000000	0.000000	1	1	0	0	0	0	0	0	0	0	0	0	0	0	0	0	0	0	0	1	0.000	0.000
100.000000	4356.410256	4386.153846	4406.666667	3711.282051	4383.589744	4612.307692	4629.743590	4524.102564	4032.307692	4109.743590	4523.589744	4437.435897	4272.307692	3956.923077	1736.000000	1678.000000	168.591000	0.000000	0.000000	0.000000	0.000000	1	1	0	0	0	0	0	0	0	0	0	0	0	0	0	0	0	0	0	1	0.000	0.000
101.000000	4355.384615	4387.179487	4405.641026	3709.743590	4383.076923	4613.333333	4630.256410	4525.128205	4033.333333	4110.256410	4524.102564	4440.512821	4269.743590	3959.487179	1736.000000	1677.000000	168.594000	0.000000	0.000000	0.000000	0.000000	1	1	0	0	0	0	0	0	0	0	0	0	0	0	0	0	0	0	0	1	0.000	0.000
102.000000	4356.410256	4386.153846	4405.128205	3711.282051	4385.128205	4615.897436	4631.794872	4524.615385	4029.230769	4108.205128	4518.974359	4437.435897	4265.128205	3953.333333	1736.000000	1678.000000	168.601000	0.000000	0.000000	0.000000	0.000000	1	1	0	0	0	0	0	0	0	0	0	0	0	0	0	0	0	0	0	1	0.000	0.000
103.000000	4355.897436	4384.615385	4403.076923	3712.820513	4385.641026	4614.358974	4631.282051	4514.358974	4025.641026	4103.589744	4515.384615	4433.846154	4264.102564	3949.230769	1737.000000	1678.000000	168.610000	0.000000	0.000000	0.000000	0.000000	1	1	0	0	0	0	0	0	0	0	0	0	0	0	0	0	0	0	0	1	0.000	0.000
104.000000	4353.333333	4386.666667	4403.076923	3711.282051	4385.128205	4612.307692	4631.282051	4511.794872	4025.128205	4103.589744	4514.871795	4433.333333	4264.615385	3953.333333	1735.000000	1678.000000	168.623000	0.000000	0.000000	0.000000	0.000000	1	1	0	0	0	0	0	0	0	0	0	0	0	0	0	0	0	0	0	1	0.000	0.000
105.000000	4356.410256	4387.692308	4405.128205	3710.769231	4385.641026	4611.282051	4630.256410	4512.820513	4020.000000	4104.102564	4512.820513	4432.820513	4263.589744	3952.307692	1737.000000	1678.000000	168.624000	0.000000	0.000000	0.000000	0.000000	1	1	0	0	0	0	0	0	0	0	0	0	0	0	0	0	0	0	0	1	0.000	0.000
106.000000	4358.974359	4385.641026	4403.076923	3712.307692	4385.641026	4611.282051	4631.794872	4508.717949	4017.435897	4101.538462	4513.333333	4430.769231	4263.589744	3947.179487	1736.000000	1678.000000	168.632000	0.000000	0.000000	0.000000	0.000000	1	1	0	0	0	0	0	0	0	0	0	0	0	0	0	0	0	0	0	1	0.000	0.000
107.000000	4353.333333	4385.641026	4400.512821	3712.307692	4384.102564	4611.794872	4632.307692	4505.128205	4014.358974	4096.410256	4513.846154	4428.717949	4261.538462	3944.615385	1736.000000	1679.000000	168.640000	0.000000	0.000000	0.000000	0.000000	1	1	0	0	0	0	0	0	0	0	0	0	0	0	0	0	0	0	0	1	0.000	0.000
108.000000	4351.794872	4389.230769	4402.564103	3711.282051	4384.615385	4612.307692	4629.743590	4503.589744	4011.794872	4093.333333	4510.769231	4429.743590	4260.000000	3943.076923	1736.000000	1677.000000	168.654000	0.000000	0.000000	0.000000	0.000000	1	1	0	0	0	0	0	0	0	0	0	0	0	0	0	0	0	0	0	1	0.000	0.000
109.000000	4356.410256	4388.717949	4403.076923	3711.282051	4385.641026	4612.307692	4629.230769	4503.076923	4009.230769	4093.333333	4510.256410	4430.256410	4262.051282	3943.589744	1736.000000	1679.000000	168.656000	0.000000	0.000000	0.000000	0.000000	1	1	0	0	0	0	0	0	0	0	0	0	0	0	0	0	0	0	0	1	0.000	0.000
110.000000	4355.897436	4385.128205	4402.564103	3711.794872	4383.076923	4611.794872	4631.794872	4508.205128	4010.769231	4097.948718	4516.923077	4434.358974	4262.051282	3948.205128	1737.000000	1677.000000	168.663000	0.000000	0.000000	0.000000	0.000000	1	1	0	0	0	0	0	0	0	0	0	0	0	0	0	0	0	0	0	1	0.000	0.000
111.000000	4353.333333	4385.641026	4403.589744	3711.282051	4382.564103	4615.384615	4631.282051	4515.897436	4017.435897	4102.051282	4519.487179	4437.435897	4263.589744	3953.333333	1735.000000	1678.000000	168.671000	0.000000	0.000000	0.000000	0.000000	1	1	0	0	0	0	0	0	0	0	0	0	0	0	0	0	0	0	0	1	0.000	0.000
112.000000	4355.384615	4386.153846	4405.128205	3713.333333	4385.128205	4616.410256	4629.230769	4517.435897	4021.025641	4102.564103	4515.897436	4437.948718	4268.205128	3956.410256	1736.000000	1677.000000	168.684000	0.000000	0.000000	0.000000	0.000000	1	1	0	0	0	0	0	0	0	0	0	0	0	0	0	0	0	0	0	1	0.000	0.000
113.000000	4356.923077	4386.153846	4404.615385	3716.410256	4384.615385	4613.333333	4631.282051	4513.846154	4016.923077	4101.538462	4515.897436	4434.358974	4266.153846	3953.846154	1737.000000	1678.000000	168.686000	0.000000	0.000000	0.000000	0.000000	1	1	0	0	0	0	0	0	0	0	0	0	0	0	0	0	0	0	0	1	0.000	0.000
114.000000	4357.435897	4387.692308	4406.153846	3714.871795	4383.076923	4612.307692	4632.820513	4523.076923	4025.641026	4112.820513	4523.589744	4440.512821	4266.666667	3957.948718	1737.000000	1678.000000	168.694000	0.000000	0.000000	0.000000	0.000000	1	1	0	0	0	0	0	0	0	0	0	0	0	0	0	0	0	0	0	1	0.000	0.000
115.000000	4357.948718	4388.205128	4406.666667	3711.282051	4384.102564	4614.871795	4631.794872	4523.589744	4030.256410	4112.820513	4520.512821	4438.974359	4267.179487	3957.948718	1736.000000	1678.000000	168.702000	0.000000	0.000000	0.000000	0.000000	1	1	0	0	0	0	0	0	0	0	0	0	0	0	0	0	0	0	0	1	0.000	0.000
116.000000	4356.410256	4385.641026	4408.205128	3713.333333	4383.589744	4615.897436	4630.769231	4529.743590	4035.384615	4115.897436	4521.025641	4442.051282	4268.717949	3958.461538	1737.000000	1679.000000	168.715000	0.000000	0.000000	0.000000	0.000000	1	1	0	0	0	0	0	0	0	0	0	0	0	0	0	0	0	0	0	1	0.000	0.000
117.000000	4356.410256	4387.179487	4408.205128	3716.923077	4384.102564	4613.846154	4631.282051	4533.846154	4037.435897	4115.384615	4523.589744	4441.025641	4266.666667	3956.410256	1736.000000	1678.000000	168.718000	0.000000	0.000000	0.000000	0.000000	1	1	0	0	0	0	0	0	0	0	0	0	0	0	0	0	0	0	0	1	0.000	0.000
118.000000	4355.897436	4387.692308	4407.179487	3714.871795	4384.615385	4610.769231	4631.282051	4527.692308	4033.333333	4111.794872	4523.076923	4439.487179	4266.666667	3955.897436	1735.000000	1679.000000	168.727000	0.000000	0.000000	0.000000	0.000000	1	1	0	0	0	0	0	0	0	0	0	0	0	0	0	0	0	0	0	1	0.000	0.000
119.000000	4355.897436	4383.589744	4407.179487	3712.307692	4383.589744	4609.743590	4631.282051	4525.128205	4031.794872	4111.794872	4521.538462	4440.512821	4268.205128	3956.923077	1737.000000	1677.000000	168.734000	0.000000	0.000000	0.000000	0.000000	1	1	0	0	0	0	0	0	0	0	0	0	0	0	0	0	0	0	0	1	0.000	0.000
120.000000	4356.923077	4383.589744	4408.717949	3712.307692	4383.076923	4609.230769	4630.769231	4522.564103	4030.769231	4109.743590	4518.974359	4439.487179	4265.641026	3956.923077	1736.000000	1678.000000	168.749000	0.000000	0.000000	0.000000	0.000000	1	1	0	0	0	0	0	0	0	0	0	0	0	0	0	0	0	0	0	1	0.000	0.000
121.000000	4358.461538	4387.692308	4407.692308	3712.307692	4385.641026	4611.794872	4631.282051	4520.000000	4027.179487	4107.692308	4515.384615	4436.410256	4263.589744	3954.358974	1737.000000	1677.000000	168.749000	0.000000	0.000000	0.000000	0.000000	1	1	0	0	0	0	0	0	0	0	0	0	0	0	0	0	0	0	0	1	0.000	0.000
122.000000	4356.923077	4386.153846	4406.153846	3711.282051	4384.102564	4613.333333	4629.230769	4517.948718	4024.102564	4105.128205	4516.923077	4437.948718	4263.589744	3951.282051	1736.000000	1678.000000	168.757000	0.000000	0.000000	0.000000	0.000000	1	1	0	0	0	0	0	0	0	0	0	0	0	0	0	0	0	0	0	1	0.000	0.000
123.000000	4355.897436	4383.076923	4405.641026	3712.307692	4382.051282	4611.794872	4626.666667	4513.333333	4022.564103	4097.948718	4517.948718	4436.410256	4263.076923	3949.230769	1737.000000	1678.000000	168.765000	0.000000	0.000000	0.000000	0.000000	1	1	0	0	0	0	0	0	0	0	0	0	0	0	0	0	0	0	0	1	0.000	0.000
124.000000	4356.410256	4385.641026	4404.615385	3713.333333	4385.128205	4611.282051	4630.256410	4505.128205	4014.871795	4095.384615	4514.358974	4431.794872	4261.538462	3949.230769	1736.000000	1678.000000	168.778000	0.000000	0.000000	0.000000	0.000000	1	1	0	0	0	0	0	0	0	0	0	0	0	0	0	0	0	0	0	1	0.000	0.000
125.000000	4355.384615	4388.205128	4405.128205	3711.282051	4386.666667	4611.282051	4633.333333	4508.205128	4015.384615	4101.538462	4516.923077	4436.923077	4262.564103	3951.282051	1736.000000	1678.000000	168.781000	0.000000	0.000000	0.000000	0.000000	1	1	0	0	0	0	0	0	0	0	0	0	0	0	0	0	0	0	0	1	0.000	0.000
126.000000	4355.384615	4386.153846	4405.128205	3710.256410	4382.051282	4611.282051	4631.282051	4514.358974	4020.000000	4100.512821	4517.948718	4438.461538	4263.076923	3950.256410	1737.000000	1678.000000	168.790000	0.000000	0.000000	0.000000	0.000000	1	1	0	0	0	0	0	0	0	0	0	0	0	0	0	0	0	0	0	1	0.000	0.000
127.000000	4354.871795	4385.641026	4405.641026	3713.333333	4380.512821	4611.794872	4628.717949	4518.974359	4023.589744	4103.589744	4515.384615	4436.410256	4265.641026	3952.307692	1736.000000	1678.000000	168.797000	0.000000	0.000000	0.000000	0.000000	1	1	0	0	0	0	0	0	0	0	0	0	0	0	0	0	0	0	0	1	0.000	0.000
128.000000	4353.333333	4388.717949	4405.128205	3714.358974	4383.076923	4611.794872	4630.256410	4518.461538	4021.538462	4106.666667	4515.897436	4437.435897	4268.205128	3954.871795	1735.000000	1678.000000	168.811000	0.000000	0.000000	0.000000	0.000000	1	1	0	0	0	0	0	0	0	0	0	0	0	0	0	0	0	0	0	1	0.000	0.000
0.000000	4355.897436	4386.666667	4409.230769	3712.307692	4385.128205	4609.743590	4630.256410	4528.717949	4030.256410	4113.333333	4524.615385	4447.179487	4271.794872	3960.512821	1736.000000	1678.000000	168.812000	0.000000	0.000000	0.000000	0.000000	1	1	0	0	0	0	0	0	0	0	0	0	0	0	0	0	0	0	0	1	0.000	0.000
1.000000	4357.948718	4383.076923	4408.205128	3711.282051	4385.128205	4609.230769	4628.717949	4527.179487	4033.333333	4108.717949	4523.076923	4444.615385	4267.179487	3956.410256	1737.000000	1677.000000	168.820000	0.000000	0.000000	0.000000	0.000000	1	1	0	0	0	0	0	0	0	0	0	0	0	0	0	0	0	0	0	1	0.000	0.000
2.000000	4355.897436	4386.153846	4406.153846	3713.333333	4384.615385	4611.282051	4631.282051	4532.820513	4037.948718	4116.410256	4524.102564	4447.692308	4269.743590	3962.564103	1735.000000	1678.000000	168.828000	0.000000	0.000000	0.000000	0.000000	1	1	0	0	0	0	0	0	0	0	0	0	0	0	0	0	0	0	0	1	0.000	0.000
3.000000	4356.923077	4388.717949	4407.179487	3714.358974	4385.641026	4613.333333	4633.333333	4538.461538	4038.461538	4119.487179	4526.153846	4450.256410	4273.333333	3966.153846	1737.000000	1678.000000	168.840000	0.000000	0.000000	0.000000	0.000000	1	1	0	0	0	0	0	0	0	0	0	0	0	0	0	0	0	0	0	1	0.000	0.000
4.000000	4358.974359	4385.641026	4408.205128	3712.820513	4384.102564	4612.307692	4629.743590	4533.846154	4036.410256	4114.358974	4526.153846	4448.717949	4271.794872	3962.051282	1736.000000	1678.000000	168.843000	0.000000	0.000000	0.000000	0.000000	1	1	0	0	0	0	0	0	0	0	0	0	0	0	0	0	0	0	0	1	0.000	0.000
5.000000	4356.923077	4386.153846	4408.717949	3712.307692	4382.564103	4609.230769	4629.230769	4530.769231	4037.948718	4111.282051	4523.076923	4445.128205	4270.769231	3960.000000	1736.000000	1678.000000	168.851000	0.000000	0.000000	0.000000	0.000000	1	1	0	0	0	0	0	0	0	0	0	0	0	0	0	0	0	0	0	1	0.000	0.000
6.000000	4355.897436	4388.205128	4409.230769	3712.307692	4383.076923	4610.256410	4629.743590	4526.153846	4034.871795	4107.692308	4520.000000	4445.128205	4269.230769	3957.948718	1736.000000	1678.000000	168.859000	0.000000	0.000000	0.000000	0.000000	1	1	0	0	0	0	0	0	0	0	0	0	0	0	0	0	0	0	0	1	0.000	0.000
7.000000	4356.923077	4387.179487	4407.179487	3711.794872	4384.615385	4611.794872	4630.256410	4527.179487	4034.871795	4111.794872	4520.512821	4447.179487	4270.256410	3957.948718	1737.000000	1678.000000	168.873000	0.000000	0.000000	0.000000	0.000000	1	1	0	0	0	0	0	0	0	0	0	0	0	0	0	0	0	0	0	1	0.000	0.000
8.000000	4355.384615	4385.128205	4405.128205	3711.794872	4383.589744	4607.692308	4630.256410	4520.000000	4029.230769	4107.179487	4519.487179	4443.076923	4268.205128	3955.384615	1736.000000	1677.000000	168.875000	0.000000	0.000000	0.000000	0.000000	1	1	0	0	0	0	0	0	0	0	0	0	0	0	0	0	0	0	0	1	0.000	0.000
9.000000	4356.923077	4384.102564	4409.743590	3712.820513	4383.589744	4607.179487	4629.743590	4518.974359	4028.205128	4105.641026	4518.461538	4439.487179	4266.666667	3956.410256	1736.000000	1678.000000	168.882000	0.000000	0.000000	0.000000	0.000000	1	1	0	0	0	0	0	0	0	0	0	0	0	0	0	0	0	0	0	1	0.000	0.000
10.000000	4358.461538	4385.128205	4411.282051	3714.358974	4386.153846	4610.769231	4627.179487	4521.538462	4031.282051	4107.179487	4517.435897	4440.000000	4265.641026	3955.897436	1736.000000	1677.000000	168.890000	0.000000	0.000000	0.000000	0.000000	1	1	0	0	0	0	0	0	0	0	0	0	0	0	0	0	0	0	0	1	0.000	0.000
11.000000	4356.410256	4385.641026	4407.692308	3713.333333	4385.128205	4610.256410	4628.717949	4522.564103	4031.282051	4105.641026	4520.000000	4442.051282	4265.128205	3954.358974	1736.000000	1678.000000	168.903000	0.000000	0.000000	0.000000	0.000000	1	1	0	0	0	0	0	0	0	0	0	0	0	0	0	0	0	0	0	1	0.000	0.000
12.000000	4356.923077	4386.153846	4407.692308	3711.794872	4382.564103	4609.743590	4630.769231	4521.538462	4024.615385	4105.128205	4521.538462	4440.000000	4265.641026	3953.846154	1736.000000	1678.000000	168.906000	0.000000	0.000000	0.000000	0.000000	1	1	0	0	0	0	0	0	0	0	0	0	0	0	0	0	0	0	0	1	0.000	0.000
13.000000	4358.461538	4385.641026	4409.743590	3713.333333	4382.051282	4611.794872	4627.692308	4523.076923	4026.666667	4109.230769	4521.025641	4439.487179	4267.692308	3956.923077	1737.000000	1678.000000	168.914000	0.000000	0.000000	0.000000	0.000000	1	1	0	0	0	0	0	0	0	0	0	0	0	0	0	0	0	0	0	1	0.000	0.000
14.000000	4355.897436	4385.641026	4406.666667	3713.846154	4385.128205	4609.743590	4627.179487	4519.487179	4027.692308	4103.589744	4517.435897	4437.948718	4265.128205	3956.923077	1735.000000	1678.000000	168.921000	0.000000	0.000000	0.000000	0.000000	1	1	0	0	0	0	0	0	0	0	0	0	0	0	0	0	0	0	0	1	0.000	0.000
15.000000	4355.897436	4386.153846	4406.153846	3711.794872	4385.641026	4608.205128	4629.230769	4527.179487	4031.282051	4108.205128	4522.564103	4442.051282	4267.179487	3961.025641	1736.000000	1678.000000	168.934000	0.000000	0.000000	0.000000	0.000000	1	1	0	0	0	0	0	0	0	0	0	0	0	0	0	0	0	0	0	1	0.000	0.000
16.000000	4359.487179	4386.153846	4407.692308	3711.794872	4384.615385	4610.256410	4629.230769	4530.256410	4030.769231	4112.820513	4525.641026	4442.051282	4270.256410	3960.512821	1736.000000	1678.000000	168.938000	0.000000	0.000000	0.000000	0.000000	1	1	0	0	0	0	0	0	0	0	0	0	0	0	0	0	0	0	0	1	0.000	0.000
17.000000	4358.974359	4386.666667	4408.717949	3713.333333	4385.128205	4610.769231	4629.230769	4530.769231	4033.333333	4114.871795	4523.589744	4445.641026	4271.794872	3960.000000	1736.000000	1678.000000	168.946000	0.000000	0.000000	0.000000	0.000000	1	1	0	0	0	0	0	0	0	0	0	0	0	0	0	0	0	0	0	1	0.000	0.000
18.000000	4355.897436	4388.717949	4406.153846	3711.282051	4387.692308	4611.794872	4630.769231	4521.538462	4029.743590	4107.692308	4516.923077	4439.487179	4267.692308	3956.410256	1736.000000	1678.000000	168.953000	0.000000	0.000000	0.000000	0.000000	1	1	0	0	0	0	0	0	0	0	0	0	0	0	0	0	0	0	0	1	0.000	0.000
19.000000	4356.923077	4389.230769	4405.641026	3710.769231	4386.153846	4614.358974	4630.256410	4519.487179	4028.205128	4107.692308	4517.948718	4435.384615	4267.179487	3956.923077	1737.000000	1678.000000	168.967000	0.000000	0.000000	0.000000	0.000000	1	1	0	0	0	0	0	0	0	0	0	0	0	0	0	0	0	0	0	1	0.000	0.000
20.000000	4357.948718	4388.717949	4405.641026	3713.333333	4384.102564	4615.384615	4629.743590	4518.974359	4026.153846	4104.615385	4518.461538	4433.846154	4266.666667	3955.384615	1738.000000	1677.000000	168.968000	0.000000	0.000000	0.000000	0.000000	1	1	0	0	0	0	0	0	0	0	0	0	0	0	0	0	0	0	0	1	0.000	0.000
21.000000	4355.897436	4387.692308	4405.641026	3713.333333	4384.102564	4613.333333	4628.717949	4517.948718	4024.102564	4102.564103	4515.897436	4435.897436	4265.641026	3954.358974	1735.000000	1679.000000	168.976000	0.000000	0.000000	0.000000	0.000000	1	1	0	0	0	0	0	0	0	0	0	0	0	0	0	0	0	0	0	1	0.000	0.000
22.000000	4354.358974	4388.205128	4403.589744	3711.794872	4384.102564	4614.358974	4630.769231	4514.358974	4022.051282	4101.025641	4514.871795	4435.384615	4263.589744	3951.282051	1738.000000	1678.000000	168.984000	0.000000	0.000000	0.000000	0.000000	1	1	0	0	0	0	0	0	0	0	0	0	0	0	0	0	0	0	0	1	0.000	0.000
23.000000	4354.358974	4388.205128	4402.564103	3711.794872	4384.102564	4615.897436	4630.256410	4506.666667	4015.897436	4094.358974	4512.820513	4430.769231	4257.948718	3947.179487	1737.000000	1678.000000	168.998000	0.000000	0.000000	0.000000	0.000000	1	1	0	0	0	0	0	0	0	0	0	0	0	0	0	0	0	0	0	1	0.000	0.000
