['COUNTER', 'AF3', 'F7', 'F3', 'FC5', 'T7', 'P7', 'O1', 'O2', 'P8', 'T8', 'FC6', 'F4', 'F8', 'AF4', 'GYROX', 'GYROY', 'TIMESTAMP', 'FUNC_ID', 'FUNC_VALUE', 'MARKER', 'SYNC_SIGNAL']
22.0 , 4421.53846154 , 4612.82051282 , 4464.61538462 , 4209.23076923 , 4571.28205128 , 4580.0 , 4553.84615385 , 4284.61538462 , 4020.51282051 , 3869.74358974 , 4246.66666667 , 4194.87179487 , 4492.82051282 , 4497.43589744 , 1719.0 , 1693.0 , 5.105 , 0.0 , 0.0 , 0.0 , 0.0 , 

23.0 , 4423.07692308 , 4612.30769231 , 4466.15384615 , 4208.71794872 , 4570.25641026 , 4580.0 , 4553.33333333 , 4286.66666667 , 4025.12820513 , 3867.69230769 , 4247.69230769 , 4198.46153846 , 4497.94871795 , 4498.46153846 , 1720.0 , 1692.0 , 5.112 , 0.0 , 0.0 , 0.0 , 0.0 , 

24.0 , 4424.1025641 , 4613.33333333 , 4468.71794872 , 4207.17948718 , 4574.35897436 , 4577.94871795 , 4553.84615385 , 4286.15384615 , 4023.07692308 , 3868.20512821 , 4245.12820513 , 4198.46153846 , 4498.46153846 , 4496.92307692 , 1719.0 , 1692.0 , 5.12 , 0.0 , 0.0 , 0.0 , 0.0 , 

25.0 , 4424.1025641 , 4612.30769231 , 4469.23076923 , 4208.20512821 , 4575.8974359 , 4577.94871795 , 4552.82051282 , 4292.30769231 , 4026.15384615 , 3873.84615385 , 4247.69230769 , 4204.61538462 , 4500.51282051 , 4501.53846154 , 1720.0 , 1693.0 , 5.128 , 0.0 , 0.0 , 0.0 , 0.0 , 

26.0 , 4421.53846154 , 4612.30769231 , 4468.20512821 , 4209.74358974 , 4571.79487179 , 4580.0 , 4551.79487179 , 4291.79487179 , 4026.15384615 , 3872.30769231 , 4248.71794872 , 4204.61538462 , 4501.53846154 , 4501.53846154 , 1719.0 , 1693.0 , 5.136 , 0.0 , 0.0 , 0.0 , 0.0 , 

27.0 , 4422.05128205 , 4612.82051282 , 4466.15384615 , 4207.69230769 , 4569.74358974 , 4580.0 , 4552.82051282 , 4288.20512821 , 4020.0 , 3868.20512821 , 4248.20512821 , 4200.51282051 , 4500.0 , 4496.92307692 , 1720.0 , 1693.0 , 5.144 , 0.0 , 0.0 , 0.0 , 0.0 , 

28.0 , 4425.12820513 , 4611.28205128 , 4463.58974359 , 4205.12820513 , 4573.33333333 , 4581.02564103 , 4554.35897436 , 4286.66666667 , 4016.41025641 , 3866.15384615 , 4244.61538462 , 4198.97435897 , 4497.94871795 , 4495.8974359 , 1720.0 , 1691.0 , 5.152 , 0.0 , 0.0 , 0.0 , 0.0 , 

29.0 , 4421.53846154 , 4611.79487179 , 4465.64102564 , 4206.15384615 , 4575.8974359 , 4581.02564103 , 4553.33333333 , 4284.1025641 , 4018.46153846 , 3868.20512821 , 4243.07692308 , 4200.51282051 , 4496.92307692 , 4497.94871795 , 1720.0 , 1693.0 , 5.159 , 0.0 , 0.0 , 0.0 , 0.0 , 

30.0 , 4419.48717949 , 4613.33333333 , 4466.66666667 , 4208.71794872 , 4570.76923077 , 4580.0 , 4551.79487179 , 4280.51282051 , 4014.87179487 , 3868.71794872 , 4241.53846154 , 4195.8974359 , 4493.33333333 , 4494.35897436 , 1721.0 , 1692.0 , 5.167 , 0.0 , 0.0 , 0.0 , 0.0 , 

31.0 , 4422.56410256 , 4612.30769231 , 4465.12820513 , 4207.69230769 , 4569.74358974 , 4580.51282051 , 4551.79487179 , 4282.56410256 , 4014.35897436 , 3866.66666667 , 4241.53846154 , 4195.38461538 , 4492.30769231 , 4492.82051282 , 1720.0 , 1694.0 , 5.174 , 0.0 , 0.0 , 0.0 , 0.0 , 

32.0 , 4422.05128205 , 4612.82051282 , 4461.53846154 , 4207.69230769 , 4575.38461538 , 4580.51282051 , 4553.84615385 , 4277.94871795 , 4013.33333333 , 3863.07692308 , 4234.35897436 , 4190.25641026 , 4489.74358974 , 4491.28205128 , 1720.0 , 1693.0 , 5.182 , 0.0 , 0.0 , 0.0 , 0.0 , 

33.0 , 4418.46153846 , 4610.25641026 , 4463.07692308 , 4208.20512821 , 4574.87179487 , 4577.43589744 , 4553.84615385 , 4268.71794872 , 4008.71794872 , 3863.58974359 , 4233.33333333 , 4187.17948718 , 4486.66666667 , 4489.23076923 , 1720.0 , 1693.0 , 5.19 , 0.0 , 0.0 , 0.0 , 0.0 , 

34.0 , 4421.53846154 , 4607.69230769 , 4468.71794872 , 4207.69230769 , 4572.82051282 , 4577.94871795 , 4551.79487179 , 4281.53846154 , 4018.46153846 , 3870.25641026 , 4246.66666667 , 4197.94871795 , 4496.41025641 , 4498.46153846 , 1720.0 , 1692.0 , 5.198 , 0.0 , 0.0 , 0.0 , 0.0 , 

35.0 , 4423.07692308 , 4611.79487179 , 4465.12820513 , 4206.66666667 , 4574.87179487 , 4583.07692308 , 4552.30769231 , 4280.51282051 , 4014.87179487 , 3864.1025641 , 4241.02564103 , 4195.38461538 , 4495.8974359 , 4497.43589744 , 1719.0 , 1692.0 , 5.205 , 0.0 , 0.0 , 0.0 , 0.0 , 

36.0 , 4420.51282051 , 4614.35897436 , 4462.05128205 , 4207.17948718 , 4572.82051282 , 4583.07692308 , 4553.84615385 , 4276.41025641 , 4013.33333333 , 3864.1025641 , 4234.35897436 , 4193.33333333 , 4492.82051282 , 4494.35897436 , 1721.0 , 1692.0 , 5.213 , 0.0 , 0.0 , 0.0 , 0.0 , 

37.0 , 4418.97435897 , 4611.79487179 , 4464.61538462 , 4208.71794872 , 4570.25641026 , 4578.46153846 , 4552.82051282 , 4278.46153846 , 4016.92307692 , 3869.74358974 , 4238.46153846 , 4196.41025641 , 4492.82051282 , 4496.92307692 , 1719.0 , 1692.0 , 5.221 , 0.0 , 0.0 , 0.0 , 0.0 , 

38.0 , 4422.05128205 , 4610.25641026 , 4470.25641026 , 4209.74358974 , 4573.33333333 , 4577.43589744 , 4551.28205128 , 4291.28205128 , 4027.17948718 , 3873.84615385 , 4249.74358974 , 4203.07692308 , 4500.51282051 , 4504.61538462 , 1720.0 , 1694.0 , 5.229 , 0.0 , 0.0 , 0.0 , 0.0 , 

39.0 , 4422.56410256 , 4612.30769231 , 4468.20512821 , 4207.69230769 , 4574.87179487 , 4580.51282051 , 4551.79487179 , 4286.15384615 , 4017.43589744 , 3867.17948718 , 4243.07692308 , 4198.46153846 , 4497.94871795 , 4498.46153846 , 1720.0 , 1692.0 , 5.237 , 0.0 , 0.0 , 0.0 , 0.0 , 

40.0 , 4420.51282051 , 4609.74358974 , 4470.25641026 , 4207.69230769 , 4571.79487179 , 4578.97435897 , 4553.33333333 , 4289.23076923 , 4023.07692308 , 3871.28205128 , 4246.66666667 , 4206.15384615 , 4504.61538462 , 4498.46153846 , 1719.0 , 1693.0 , 5.245 , 0.0 , 0.0 , 0.0 , 0.0 , 

41.0 , 4420.0 , 4610.25641026 , 4470.25641026 , 4209.23076923 , 4573.84615385 , 4577.94871795 , 4555.38461538 , 4289.23076923 , 4024.61538462 , 3872.82051282 , 4246.15384615 , 4204.1025641 , 4505.64102564 , 4500.0 , 1720.0 , 1692.0 , 5.253 , 0.0 , 0.0 , 0.0 , 0.0 , 

42.0 , 4422.05128205 , 4611.28205128 , 4467.17948718 , 4208.71794872 , 4575.8974359 , 4578.46153846 , 4554.87179487 , 4286.15384615 , 4016.41025641 , 3870.25641026 , 4242.56410256 , 4197.43589744 , 4499.48717949 , 4498.97435897 , 1719.0 , 1693.0 , 5.261 , 0.0 , 0.0 , 0.0 , 0.0 , 

43.0 , 4423.07692308 , 4613.33333333 , 4465.64102564 , 4206.66666667 , 4571.28205128 , 4579.48717949 , 4553.33333333 , 4284.61538462 , 4016.41025641 , 3867.69230769 , 4242.56410256 , 4197.43589744 , 4497.94871795 , 4496.92307692 , 1720.0 , 1692.0 , 5.269 , 0.0 , 0.0 , 0.0 , 0.0 , 

44.0 , 4422.05128205 , 4612.82051282 , 4466.15384615 , 4207.69230769 , 4570.25641026 , 4579.48717949 , 4552.30769231 , 4282.56410256 , 4017.94871795 , 3867.69230769 , 4242.56410256 , 4197.43589744 , 4497.43589744 , 4495.8974359 , 1720.0 , 1693.0 , 5.277 , 0.0 , 0.0 , 0.0 , 0.0 , 

45.0 , 4421.53846154 , 4611.28205128 , 4465.64102564 , 4209.74358974 , 4576.41025641 , 4579.48717949 , 4553.33333333 , 4285.64102564 , 4015.38461538 , 3869.23076923 , 4240.51282051 , 4195.8974359 , 4495.38461538 , 4497.94871795 , 1720.0 , 1693.0 , 5.284 , 0.0 , 0.0 , 0.0 , 0.0 , 

46.0 , 4423.07692308 , 4611.28205128 , 4464.61538462 , 4208.71794872 , 4577.43589744 , 4580.0 , 4553.33333333 , 4283.07692308 , 4013.33333333 , 3866.15384615 , 4238.97435897 , 4193.33333333 , 4491.79487179 , 4496.41025641 , 1720.0 , 1693.0 , 5.292 , 0.0 , 0.0 , 0.0 , 0.0 , 

47.0 , 4424.1025641 , 4612.82051282 , 4466.15384615 , 4207.17948718 , 4572.82051282 , 4577.94871795 , 4552.30769231 , 4279.48717949 , 4016.92307692 , 3863.58974359 , 4239.48717949 , 4194.87179487 , 4493.33333333 , 4493.84615385 , 1720.0 , 1692.0 , 5.3 , 0.0 , 0.0 , 0.0 , 0.0 , 

48.0 , 4421.53846154 , 4612.82051282 , 4465.64102564 , 4207.69230769 , 4572.82051282 , 4576.41025641 , 4552.30769231 , 4276.41025641 , 4011.28205128 , 3864.61538462 , 4235.38461538 , 4193.33333333 , 4492.30769231 , 4491.28205128 , 1720.0 , 1693.0 , 5.308 , 0.0 , 0.0 , 0.0 , 0.0 , 

49.0 , 4421.02564103 , 4612.82051282 , 4464.1025641 , 4206.66666667 , 4575.38461538 , 4577.43589744 , 4552.30769231 , 4274.35897436 , 4006.66666667 , 3865.12820513 , 4235.38461538 , 4191.79487179 , 4490.25641026 , 4491.28205128 , 1720.0 , 1693.0 , 5.316 , 0.0 , 0.0 , 0.0 , 0.0 , 

50.0 , 4423.58974359 , 4610.76923077 , 4464.61538462 , 4206.15384615 , 4571.79487179 , 4578.46153846 , 4552.82051282 , 4271.79487179 , 4011.79487179 , 3864.61538462 , 4237.43589744 , 4191.28205128 , 4490.76923077 , 4492.30769231 , 1719.0 , 1694.0 , 5.324 , 0.0 , 0.0 , 0.0 , 0.0 , 

51.0 , 4424.1025641 , 4607.69230769 , 4465.64102564 , 4207.69230769 , 4572.30769231 , 4577.94871795 , 4553.33333333 , 4278.46153846 , 4016.92307692 , 3866.66666667 , 4239.48717949 , 4193.33333333 , 4492.30769231 , 4493.84615385 , 1720.0 , 1693.0 , 5.331 , 0.0 , 0.0 , 0.0 , 0.0 , 

52.0 , 4420.0 , 4608.71794872 , 4464.61538462 , 4207.69230769 , 4575.38461538 , 4580.0 , 4553.84615385 , 4281.53846154 , 4014.35897436 , 3865.12820513 , 4238.97435897 , 4191.28205128 , 4491.79487179 , 4493.84615385 , 1719.0 , 1693.0 , 5.339 , 0.0 , 0.0 , 0.0 , 0.0 , 

53.0 , 4420.0 , 4611.28205128 , 4464.61538462 , 4206.15384615 , 4574.87179487 , 4581.02564103 , 4553.33333333 , 4283.58974359 , 4017.43589744 , 3866.15384615 , 4243.07692308 , 4195.8974359 , 4494.35897436 , 4495.8974359 , 1720.0 , 1692.0 , 5.347 , 0.0 , 0.0 , 0.0 , 0.0 , 

54.0 , 4422.56410256 , 4612.30769231 , 4464.1025641 , 4206.15384615 , 4573.84615385 , 4580.51282051 , 4552.82051282 , 4283.58974359 , 4018.46153846 , 3868.20512821 , 4243.58974359 , 4200.0 , 4496.92307692 , 4496.92307692 , 1719.0 , 1692.0 , 5.355 , 0.0 , 0.0 , 0.0 , 0.0 , 

55.0 , 4421.02564103 , 4609.74358974 , 4466.66666667 , 4206.15384615 , 4574.35897436 , 4580.51282051 , 4553.84615385 , 4287.17948718 , 4021.53846154 , 3871.28205128 , 4245.64102564 , 4201.53846154 , 4501.53846154 , 4499.48717949 , 1721.0 , 1693.0 , 5.363 , 0.0 , 0.0 , 0.0 , 0.0 , 

56.0 , 4419.48717949 , 4608.20512821 , 4468.71794872 , 4207.17948718 , 4574.87179487 , 4582.56410256 , 4553.84615385 , 4288.20512821 , 4023.58974359 , 3869.74358974 , 4247.17948718 , 4200.51282051 , 4501.53846154 , 4501.53846154 , 1719.0 , 1692.0 , 5.37 , 0.0 , 0.0 , 0.0 , 0.0 , 

57.0 , 4421.53846154 , 4610.25641026 , 4469.74358974 , 4208.71794872 , 4572.82051282 , 4582.05128205 , 4551.79487179 , 4292.30769231 , 4025.12820513 , 3871.28205128 , 4249.74358974 , 4206.66666667 , 4503.07692308 , 4502.05128205 , 1720.0 , 1694.0 , 5.378 , 0.0 , 0.0 , 0.0 , 0.0 , 

58.0 , 4421.02564103 , 4614.87179487 , 4468.20512821 , 4209.74358974 , 4574.35897436 , 4581.02564103 , 4551.28205128 , 4291.79487179 , 4020.0 , 3869.74358974 , 4246.15384615 , 4205.12820513 , 4502.56410256 , 4498.46153846 , 1720.0 , 1692.0 , 5.386 , 0.0 , 0.0 , 0.0 , 0.0 , 

59.0 , 4419.48717949 , 4612.30769231 , 4468.20512821 , 4208.20512821 , 4574.87179487 , 4579.48717949 , 4552.82051282 , 4288.71794872 , 4021.02564103 , 3865.64102564 , 4243.58974359 , 4198.46153846 , 4501.02564103 , 4501.02564103 , 1720.0 , 1694.0 , 5.394 , 0.0 , 0.0 , 0.0 , 0.0 , 

60.0 , 4421.53846154 , 4607.17948718 , 4468.20512821 , 4205.12820513 , 4571.28205128 , 4578.97435897 , 4552.30769231 , 4286.66666667 , 4023.07692308 , 3865.64102564 , 4243.58974359 , 4195.38461538 , 4497.43589744 , 4501.02564103 , 1721.0 , 1692.0 , 5.402 , 0.0 , 0.0 , 0.0 , 0.0 , 

61.0 , 4422.56410256 , 4608.71794872 , 4466.15384615 , 4205.12820513 , 4570.76923077 , 4580.51282051 , 4551.79487179 , 4285.12820513 , 4018.97435897 , 3868.71794872 , 4242.05128205 , 4195.8974359 , 4493.33333333 , 4496.92307692 , 1719.0 , 1693.0 , 5.409 , 0.0 , 0.0 , 0.0 , 0.0 , 

62.0 , 4420.51282051 , 4614.87179487 , 4463.58974359 , 4208.71794872 , 4572.30769231 , 4582.56410256 , 4553.84615385 , 4282.05128205 , 4015.38461538 , 3867.69230769 , 4240.0 , 4194.87179487 , 4491.79487179 , 4493.84615385 , 1720.0 , 1693.0 , 5.416 , 0.0 , 0.0 , 0.0 , 0.0 , 

63.0 , 4418.97435897 , 4615.38461538 , 4463.07692308 , 4209.23076923 , 4572.30769231 , 4580.0 , 4553.33333333 , 4280.0 , 4015.8974359 , 3866.15384615 , 4238.97435897 , 4192.30769231 , 4491.28205128 , 4491.28205128 , 1720.0 , 1692.0 , 5.424 , 0.0 , 0.0 , 0.0 , 0.0 , 

64.0 , 4421.02564103 , 4609.74358974 , 4463.58974359 , 4207.17948718 , 4572.82051282 , 4580.0 , 4552.30769231 , 4280.0 , 4015.8974359 , 3867.69230769 , 4238.97435897 , 4192.30769231 , 4490.76923077 , 4492.30769231 , 1720.0 , 1692.0 , 5.432 , 0.0 , 0.0 , 0.0 , 0.0 , 

65.0 , 4420.51282051 , 4608.71794872 , 4464.61538462 , 4207.17948718 , 4574.87179487 , 4583.07692308 , 4553.33333333 , 4274.35897436 , 4009.74358974 , 3865.12820513 , 4235.8974359 , 4190.25641026 , 4486.66666667 , 4492.82051282 , 1719.0 , 1693.0 , 5.441 , 0.0 , 0.0 , 0.0 , 0.0 , 

66.0 , 4420.0 , 4610.76923077 , 4464.61538462 , 4209.23076923 , 4571.79487179 , 4581.02564103 , 4553.84615385 , 4274.35897436 , 4010.25641026 , 3863.58974359 , 4235.8974359 , 4191.79487179 , 4488.20512821 , 4491.79487179 , 1721.0 , 1693.0 , 5.449 , 0.0 , 0.0 , 0.0 , 0.0 , 

67.0 , 4420.0 , 4611.28205128 , 4463.58974359 , 4209.23076923 , 4572.30769231 , 4580.0 , 4553.33333333 , 4276.41025641 , 4014.35897436 , 3865.64102564 , 4238.46153846 , 4192.30769231 , 4493.33333333 , 4491.79487179 , 1719.0 , 1692.0 , 5.457 , 0.0 , 0.0 , 0.0 , 0.0 , 

68.0 , 4421.53846154 , 4611.28205128 , 4467.17948718 , 4208.71794872 , 4572.82051282 , 4580.51282051 , 4552.30769231 , 4281.02564103 , 4016.92307692 , 3871.28205128 , 4242.56410256 , 4194.87179487 , 4496.41025641 , 4496.92307692 , 1720.0 , 1694.0 , 5.464 , 0.0 , 0.0 , 0.0 , 0.0 , 

69.0 , 4422.05128205 , 4612.30769231 , 4468.20512821 , 4209.74358974 , 4570.76923077 , 4579.48717949 , 4552.30769231 , 4281.53846154 , 4015.38461538 , 3870.25641026 , 4242.05128205 , 4193.84615385 , 4494.35897436 , 4495.8974359 , 1720.0 , 1692.0 , 5.472 , 0.0 , 0.0 , 0.0 , 0.0 , 

70.0 , 4422.05128205 , 4611.28205128 , 4465.64102564 , 4208.71794872 , 4572.30769231 , 4578.97435897 , 4553.33333333 , 4286.15384615 , 4020.0 , 3868.71794872 , 4243.58974359 , 4196.41025641 , 4496.41025641 , 4496.41025641 , 1720.0 , 1693.0 , 5.48 , 0.0 , 0.0 , 0.0 , 0.0 , 

71.0 , 4422.56410256 , 4609.74358974 , 4465.64102564 , 4207.69230769 , 4574.35897436 , 4578.97435897 , 4553.33333333 , 4286.15384615 , 4021.02564103 , 3869.23076923 , 4245.12820513 , 4197.43589744 , 4496.92307692 , 4497.94871795 , 1720.0 , 1692.0 , 5.488 , 0.0 , 0.0 , 0.0 , 0.0 , 

72.0 , 4423.07692308 , 4610.76923077 , 4469.23076923 , 4208.20512821 , 4573.33333333 , 4578.97435897 , 4552.82051282 , 4289.74358974 , 4024.61538462 , 3871.79487179 , 4249.23076923 , 4201.02564103 , 4499.48717949 , 4501.02564103 , 1719.0 , 1693.0 , 5.496 , 0.0 , 0.0 , 0.0 , 0.0 , 

73.0 , 4424.61538462 , 4615.38461538 , 4468.20512821 , 4207.69230769 , 4572.82051282 , 4580.0 , 4554.35897436 , 4291.79487179 , 4024.61538462 , 3870.25641026 , 4248.71794872 , 4202.05128205 , 4499.48717949 , 4501.02564103 , 1721.0 , 1693.0 , 5.503 , 0.0 , 0.0 , 0.0 , 0.0 , 

74.0 , 4423.07692308 , 4615.8974359 , 4469.23076923 , 4206.15384615 , 4575.8974359 , 4581.53846154 , 4554.87179487 , 4291.28205128 , 4026.15384615 , 3871.79487179 , 4247.69230769 , 4204.61538462 , 4499.48717949 , 4500.51282051 , 1719.0 , 1693.0 , 5.511 , 0.0 , 0.0 , 0.0 , 0.0 , 

75.0 , 4419.48717949 , 4611.79487179 , 4469.23076923 , 4207.17948718 , 4577.43589744 , 4581.53846154 , 4551.79487179 , 4287.17948718 , 4023.07692308 , 3870.76923077 , 4244.61538462 , 4203.07692308 , 4498.46153846 , 4498.97435897 , 1720.0 , 1693.0 , 5.519 , 0.0 , 0.0 , 0.0 , 0.0 , 

76.0 , 4417.94871795 , 4610.76923077 , 4468.20512821 , 4206.66666667 , 4574.35897436 , 4580.51282051 , 4551.28205128 , 4284.61538462 , 4018.46153846 , 3866.15384615 , 4244.61538462 , 4198.97435897 , 4496.41025641 , 4497.43589744 , 1720.0 , 1692.0 , 5.527 , 0.0 , 0.0 , 0.0 , 0.0 , 

77.0 , 4420.0 , 4612.82051282 , 4468.20512821 , 4206.66666667 , 4572.82051282 , 4580.51282051 , 4553.84615385 , 4285.12820513 , 4016.92307692 , 3865.12820513 , 4245.12820513 , 4197.43589744 , 4493.84615385 , 4495.8974359 , 1720.0 , 1692.0 , 5.535 , 0.0 , 0.0 , 0.0 , 0.0 , 

78.0 , 4421.53846154 , 4611.79487179 , 4465.64102564 , 4208.71794872 , 4574.87179487 , 4579.48717949 , 4554.35897436 , 4282.05128205 , 4020.0 , 3867.69230769 , 4241.02564103 , 4196.41025641 , 4492.82051282 , 4492.30769231 , 1719.0 , 1692.0 , 5.543 , 0.0 , 0.0 , 0.0 , 0.0 , 

79.0 , 4421.02564103 , 4609.74358974 , 4463.07692308 , 4207.17948718 , 4575.8974359 , 4578.97435897 , 4553.33333333 , 4279.48717949 , 4018.46153846 , 3866.66666667 , 4236.92307692 , 4193.84615385 , 4491.79487179 , 4490.76923077 , 1720.0 , 1693.0 , 5.55 , 0.0 , 0.0 , 0.0 , 0.0 , 

80.0 , 4421.53846154 , 4609.74358974 , 4463.58974359 , 4207.17948718 , 4574.35897436 , 4580.0 , 4552.82051282 , 4276.92307692 , 4011.28205128 , 3863.58974359 , 4235.8974359 , 4188.71794872 , 4487.69230769 , 4491.79487179 , 1720.0 , 1692.0 , 5.558 , 0.0 , 0.0 , 0.0 , 0.0 , 

81.0 , 4420.51282051 , 4610.25641026 , 4464.61538462 , 4209.74358974 , 4573.84615385 , 4580.51282051 , 4553.84615385 , 4277.43589744 , 4011.79487179 , 3865.64102564 , 4237.94871795 , 4189.23076923 , 4488.20512821 , 4494.35897436 , 1719.0 , 1693.0 , 5.566 , 0.0 , 0.0 , 0.0 , 0.0 , 

82.0 , 4420.0 , 4610.25641026 , 4463.07692308 , 4207.69230769 , 4574.35897436 , 4578.97435897 , 4554.35897436 , 4275.8974359 , 4012.30769231 , 3867.69230769 , 4236.41025641 , 4191.79487179 , 4489.74358974 , 4493.84615385 , 1721.0 , 1693.0 , 5.573 , 0.0 , 0.0 , 0.0 , 0.0 , 

83.0 , 4421.02564103 , 4609.23076923 , 4465.64102564 , 4205.64102564 , 4574.35897436 , 4578.46153846 , 4552.30769231 , 4277.94871795 , 4015.38461538 , 3867.69230769 , 4237.43589744 , 4195.8974359 , 4491.79487179 , 4493.33333333 , 1719.0 , 1692.0 , 5.582 , 0.0 , 0.0 , 0.0 , 0.0 , 

84.0 , 4419.48717949 , 4611.28205128 , 4466.66666667 , 4207.69230769 , 4573.33333333 , 4581.53846154 , 4551.79487179 , 4279.48717949 , 4017.43589744 , 3865.12820513 , 4240.51282051 , 4194.35897436 , 4492.82051282 , 4493.84615385 , 1720.0 , 1693.0 , 5.589 , 0.0 , 0.0 , 0.0 , 0.0 , 

85.0 , 4421.53846154 , 4612.82051282 , 4465.12820513 , 4208.20512821 , 4572.82051282 , 4580.51282051 , 4553.84615385 , 4281.53846154 , 4021.02564103 , 3867.17948718 , 4243.58974359 , 4194.87179487 , 4495.8974359 , 4495.8974359 , 1720.0 , 1692.0 , 5.597 , 0.0 , 0.0 , 0.0 , 0.0 , 

86.0 , 4423.58974359 , 4610.76923077 , 4463.58974359 , 4206.66666667 , 4574.87179487 , 4578.97435897 , 4554.35897436 , 4279.48717949 , 4017.94871795 , 3868.20512821 , 4241.02564103 , 4194.87179487 , 4495.38461538 , 4495.38461538 , 1720.0 , 1693.0 , 5.605 , 0.0 , 0.0 , 0.0 , 0.0 , 

87.0 , 4421.53846154 , 4608.20512821 , 4466.66666667 , 4207.17948718 , 4575.38461538 , 4578.97435897 , 4553.33333333 , 4284.61538462 , 4021.02564103 , 3870.76923077 , 4243.07692308 , 4198.97435897 , 4498.97435897 , 4497.94871795 , 1720.0 , 1692.0 , 5.613 , 0.0 , 0.0 , 0.0 , 0.0 , 

88.0 , 4422.05128205 , 4609.74358974 , 4467.17948718 , 4208.71794872 , 4574.87179487 , 4579.48717949 , 4554.35897436 , 4288.20512821 , 4025.64102564 , 3870.76923077 , 4244.61538462 , 4197.94871795 , 4499.48717949 , 4497.43589744 , 1719.0 , 1693.0 , 5.621 , 0.0 , 0.0 , 0.0 , 0.0 , 

89.0 , 4424.61538462 , 4612.30769231 , 4467.17948718 , 4207.69230769 , 4575.38461538 , 4581.02564103 , 4554.35897436 , 4292.82051282 , 4029.74358974 , 3872.30769231 , 4248.20512821 , 4200.51282051 , 4500.0 , 4497.43589744 , 1720.0 , 1692.0 , 5.629 , 0.0 , 0.0 , 0.0 , 0.0 , 

90.0 , 4422.05128205 , 4613.33333333 , 4465.64102564 , 4206.66666667 , 4576.41025641 , 4583.07692308 , 4552.82051282 , 4294.35897436 , 4024.61538462 , 3871.79487179 , 4247.17948718 , 4201.53846154 , 4500.0 , 4496.41025641 , 1720.0 , 1693.0 , 5.636 , 0.0 , 0.0 , 0.0 , 0.0 , 

91.0 , 4420.0 , 4613.33333333 , 4464.1025641 , 4207.17948718 , 4574.35897436 , 4582.56410256 , 4553.33333333 , 4291.79487179 , 4022.56410256 , 3871.79487179 , 4244.61538462 , 4197.94871795 , 4499.48717949 , 4495.8974359 , 1720.0 , 1692.0 , 5.644 , 0.0 , 0.0 , 0.0 , 0.0 , 

92.0 , 4421.53846154 , 4613.33333333 , 4467.17948718 , 4208.71794872 , 4572.30769231 , 4581.02564103 , 4553.33333333 , 4287.69230769 , 4023.58974359 , 3870.76923077 , 4241.53846154 , 4194.35897436 , 4497.43589744 , 4496.92307692 , 1719.0 , 1693.0 , 5.652 , 0.0 , 0.0 , 0.0 , 0.0 , 

93.0 , 4421.02564103 , 4609.74358974 , 4468.71794872 , 4208.20512821 , 4572.82051282 , 4581.53846154 , 4552.82051282 , 4287.17948718 , 4022.56410256 , 3870.25641026 , 4241.53846154 , 4196.92307692 , 4496.92307692 , 4498.46153846 , 1721.0 , 1692.0 , 5.66 , 0.0 , 0.0 , 0.0 , 0.0 , 

94.0 , 4421.53846154 , 4607.69230769 , 4464.61538462 , 4207.17948718 , 4572.30769231 , 4583.07692308 , 4552.30769231 , 4285.64102564 , 4018.97435897 , 3869.74358974 , 4240.0 , 4195.38461538 , 4496.41025641 , 4495.8974359 , 1719.0 , 1692.0 , 5.668 , 0.0 , 0.0 , 0.0 , 0.0 , 

95.0 , 4422.56410256 , 4609.74358974 , 4464.1025641 , 4207.17948718 , 4571.28205128 , 4580.0 , 4552.82051282 , 4281.02564103 , 4015.38461538 , 3865.64102564 , 4236.41025641 , 4190.25641026 , 4494.35897436 , 4491.79487179 , 1721.0 , 1694.0 , 5.675 , 0.0 , 0.0 , 0.0 , 0.0 , 

96.0 , 4419.48717949 , 4611.79487179 , 4467.69230769 , 4208.71794872 , 4573.33333333 , 4578.46153846 , 4553.84615385 , 4278.46153846 , 4013.33333333 , 3863.07692308 , 4236.92307692 , 4192.30769231 , 4492.30769231 , 4492.30769231 , 1720.0 , 1692.0 , 5.683 , 0.0 , 0.0 , 0.0 , 0.0 , 

97.0 , 4418.97435897 , 4612.30769231 , 4465.64102564 , 4208.20512821 , 4573.84615385 , 4581.53846154 , 4552.30769231 , 4273.33333333 , 4009.74358974 , 3864.1025641 , 4237.43589744 , 4190.76923077 , 4488.20512821 , 4490.76923077 , 1720.0 , 1693.0 , 5.691 , 0.0 , 0.0 , 0.0 , 0.0 , 

98.0 , 4421.02564103 , 4611.79487179 , 4462.56410256 , 4207.17948718 , 4574.87179487 , 4581.02564103 , 4552.30769231 , 4276.41025641 , 4012.82051282 , 3867.17948718 , 4236.92307692 , 4188.20512821 , 4490.25641026 , 4490.25641026 , 1720.0 , 1693.0 , 5.699 , 0.0 , 0.0 , 0.0 , 0.0 , 

99.0 , 4421.53846154 , 4610.76923077 , 4464.1025641 , 4208.20512821 , 4577.43589744 , 4579.48717949 , 4554.35897436 , 4280.51282051 , 4016.41025641 , 3867.69230769 , 4235.8974359 , 4191.79487179 , 4493.33333333 , 4492.30769231 , 1720.0 , 1693.0 , 5.707 , 0.0 , 0.0 , 0.0 , 0.0 , 

100.0 , 4420.51282051 , 4611.28205128 , 4466.15384615 , 4209.74358974 , 4577.43589744 , 4581.53846154 , 4553.84615385 , 4281.02564103 , 4019.48717949 , 3868.71794872 , 4241.02564103 , 4197.94871795 , 4493.84615385 , 4495.38461538 , 1720.0 , 1692.0 , 5.715 , 0.0 , 0.0 , 0.0 , 0.0 , 

101.0 , 4420.0 , 4612.82051282 , 4465.12820513 , 4208.71794872 , 4575.38461538 , 4581.53846154 , 4552.30769231 , 4278.46153846 , 4017.94871795 , 3867.69230769 , 4241.53846154 , 4194.87179487 , 4492.30769231 , 4495.8974359 , 1720.0 , 1693.0 , 5.722 , 0.0 , 0.0 , 0.0 , 0.0 , 

102.0 , 4421.53846154 , 4611.79487179 , 4466.66666667 , 4206.15384615 , 4573.84615385 , 4578.97435897 , 4553.84615385 , 4283.58974359 , 4019.48717949 , 3868.20512821 , 4243.07692308 , 4196.92307692 , 4496.92307692 , 4495.38461538 , 1720.0 , 1692.0 , 5.73 , 0.0 , 0.0 , 0.0 , 0.0 , 

103.0 , 4422.56410256 , 4611.79487179 , 4467.17948718 , 4206.66666667 , 4574.87179487 , 4581.53846154 , 4554.35897436 , 4286.15384615 , 4020.51282051 , 3869.74358974 , 4244.61538462 , 4198.46153846 , 4496.41025641 , 4492.30769231 , 1720.0 , 1693.0 , 5.738 , 0.0 , 0.0 , 0.0 , 0.0 , 

104.0 , 4422.05128205 , 4612.30769231 , 4466.15384615 , 4209.74358974 , 4574.87179487 , 4582.56410256 , 4552.82051282 , 4290.25641026 , 4025.64102564 , 3871.79487179 , 4247.17948718 , 4200.0 , 4497.43589744 , 4496.92307692 , 1720.0 , 1692.0 , 5.746 , 0.0 , 0.0 , 0.0 , 0.0 , 

105.0 , 4421.53846154 , 4613.33333333 , 4464.61538462 , 4210.25641026 , 4573.84615385 , 4580.51282051 , 4553.33333333 , 4291.79487179 , 4025.12820513 , 3868.71794872 , 4245.12820513 , 4198.97435897 , 4499.48717949 , 4502.56410256 , 1720.0 , 1693.0 , 5.754 , 0.0 , 0.0 , 0.0 , 0.0 , 

106.0 , 4422.56410256 , 4612.30769231 , 4467.17948718 , 4208.71794872 , 4572.30769231 , 4580.0 , 4553.33333333 , 4293.33333333 , 4026.15384615 , 3867.69230769 , 4246.15384615 , 4201.53846154 , 4501.02564103 , 4501.02564103 , 1719.0 , 1692.0 , 5.761 , 0.0 , 0.0 , 0.0 , 0.0 , 

107.0 , 4422.05128205 , 4611.28205128 , 4467.17948718 , 4210.25641026 , 4572.82051282 , 4581.53846154 , 4552.30769231 , 4291.28205128 , 4024.61538462 , 3868.20512821 , 4243.58974359 , 4198.97435897 , 4497.43589744 , 4494.35897436 , 1720.0 , 1693.0 , 5.769 , 0.0 , 0.0 , 0.0 , 0.0 , 

108.0 , 4419.48717949 , 4610.76923077 , 4464.61538462 , 4211.28205128 , 4574.35897436 , 4581.02564103 , 4553.33333333 , 4288.71794872 , 4022.05128205 , 3868.20512821 , 4238.97435897 , 4195.38461538 , 4496.41025641 , 4493.33333333 , 1720.0 , 1692.0 , 5.777 , 0.0 , 0.0 , 0.0 , 0.0 , 

109.0 , 4421.53846154 , 4612.82051282 , 4465.12820513 , 4209.74358974 , 4574.87179487 , 4580.51282051 , 4554.35897436 , 4286.66666667 , 4018.46153846 , 3867.17948718 , 4238.46153846 , 4195.38461538 , 4496.41025641 , 4492.82051282 , 1720.0 , 1693.0 , 5.785 , 0.0 , 0.0 , 0.0 , 0.0 , 

110.0 , 4423.58974359 , 4611.79487179 , 4465.64102564 , 4207.69230769 , 4574.35897436 , 4580.0 , 4552.30769231 , 4282.05128205 , 4018.97435897 , 3867.69230769 , 4242.05128205 , 4196.92307692 , 4492.82051282 , 4493.33333333 , 1720.0 , 1692.0 , 5.793 , 0.0 , 0.0 , 0.0 , 0.0 , 

111.0 , 4420.51282051 , 4610.25641026 , 4464.61538462 , 4207.69230769 , 4573.33333333 , 4581.02564103 , 4551.79487179 , 4280.0 , 4017.94871795 , 3869.74358974 , 4242.56410256 , 4195.8974359 , 4491.28205128 , 4495.38461538 , 1720.0 , 1693.0 , 5.801 , 0.0 , 0.0 , 0.0 , 0.0 , 

112.0 , 4417.43589744 , 4610.25641026 , 4464.61538462 , 4207.69230769 , 4572.82051282 , 4581.02564103 , 4553.33333333 , 4279.48717949 , 4013.33333333 , 3868.71794872 , 4237.94871795 , 4192.30769231 , 4492.82051282 , 4494.87179487 , 1721.0 , 1692.0 , 5.808 , 0.0 , 0.0 , 0.0 , 0.0 , 

113.0 , 4420.0 , 4611.28205128 , 4465.64102564 , 4205.12820513 , 4573.84615385 , 4578.97435897 , 4552.30769231 , 4278.97435897 , 4014.35897436 , 3865.12820513 , 4236.41025641 , 4191.79487179 , 4492.30769231 , 4493.33333333 , 1718.0 , 1692.0 , 5.816 , 0.0 , 0.0 , 0.0 , 0.0 , 

114.0 , 4422.56410256 , 4612.30769231 , 4463.58974359 , 4205.12820513 , 4574.35897436 , 4578.46153846 , 4551.79487179 , 4273.33333333 , 4015.38461538 , 3861.02564103 , 4236.92307692 , 4190.25641026 , 4489.23076923 , 4489.74358974 , 1720.0 , 1694.0 , 5.823 , 0.0 , 0.0 , 0.0 , 0.0 , 

115.0 , 4420.51282051 , 4610.25641026 , 4465.12820513 , 4208.20512821 , 4573.84615385 , 4581.53846154 , 4553.84615385 , 4272.82051282 , 4016.92307692 , 3864.61538462 , 4238.46153846 , 4191.79487179 , 4491.28205128 , 4488.71794872 , 1719.0 , 1692.0 , 5.831 , 0.0 , 0.0 , 0.0 , 0.0 , 

116.0 , 4420.51282051 , 4607.17948718 , 4469.74358974 , 4208.71794872 , 4574.35897436 , 4582.56410256 , 4554.35897436 , 4276.92307692 , 4015.8974359 , 3869.23076923 , 4237.43589744 , 4192.82051282 , 4492.82051282 , 4492.82051282 , 1719.0 , 1693.0 , 5.839 , 0.0 , 0.0 , 0.0 , 0.0 , 

117.0 , 4422.56410256 , 4607.69230769 , 4468.20512821 , 4206.15384615 , 4572.82051282 , 4581.02564103 , 4554.87179487 , 4282.56410256 , 4016.92307692 , 3869.23076923 , 4240.0 , 4194.87179487 , 4493.33333333 , 4495.8974359 , 1720.0 , 1692.0 , 5.847 , 0.0 , 0.0 , 0.0 , 0.0 , 

118.0 , 4422.56410256 , 4611.28205128 , 4463.58974359 , 4208.20512821 , 4569.23076923 , 4580.0 , 4554.87179487 , 4282.05128205 , 4018.97435897 , 3867.69230769 , 4242.56410256 , 4195.38461538 , 4493.33333333 , 4492.30769231 , 1720.0 , 1693.0 , 5.855 , 0.0 , 0.0 , 0.0 , 0.0 , 

119.0 , 4419.48717949 , 4611.28205128 , 4466.15384615 , 4211.28205128 , 4572.30769231 , 4580.0 , 4552.82051282 , 4286.66666667 , 4024.1025641 , 3871.79487179 , 4244.61538462 , 4200.51282051 , 4497.43589744 , 4493.84615385 , 1720.0 , 1692.0 , 5.863 , 0.0 , 0.0 , 0.0 , 0.0 , 

120.0 , 4420.0 , 4609.74358974 , 4469.23076923 , 4208.71794872 , 4576.41025641 , 4580.51282051 , 4552.30769231 , 4287.17948718 , 4020.0 , 3870.76923077 , 4244.1025641 , 4200.0 , 4500.0 , 4494.87179487 , 1719.0 , 1693.0 , 5.871 , 0.0 , 0.0 , 0.0 , 0.0 , 

121.0 , 4423.58974359 , 4609.74358974 , 4469.74358974 , 4207.17948718 , 4575.38461538 , 4581.02564103 , 4552.82051282 , 4290.76923077 , 4023.07692308 , 3871.28205128 , 4249.23076923 , 4201.53846154 , 4505.64102564 , 4497.94871795 , 1720.0 , 1693.0 , 5.879 , 0.0 , 0.0 , 0.0 , 0.0 , 

122.0 , 4422.56410256 , 4612.30769231 , 4467.69230769 , 4208.71794872 , 4574.35897436 , 4582.05128205 , 4552.82051282 , 4291.79487179 , 4027.69230769 , 3869.74358974 , 4247.17948718 , 4198.97435897 , 4503.58974359 , 4501.53846154 , 1720.0 , 1693.0 , 5.887 , 0.0 , 0.0 , 0.0 , 0.0 , 

123.0 , 4420.0 , 4613.33333333 , 4466.15384615 , 4209.23076923 , 4574.87179487 , 4582.05128205 , 4551.28205128 , 4289.74358974 , 4022.56410256 , 3869.23076923 , 4243.58974359 , 4196.92307692 , 4497.43589744 , 4500.51282051 , 1721.0 , 1692.0 , 5.894 , 0.0 , 0.0 , 0.0 , 0.0 , 

124.0 , 4422.56410256 , 4611.79487179 , 4467.17948718 , 4209.23076923 , 4574.35897436 , 4582.05128205 , 4551.79487179 , 4287.17948718 , 4014.87179487 , 3869.74358974 , 4243.58974359 , 4195.8974359 , 4497.43589744 , 4495.8974359 , 1720.0 , 1692.0 , 5.902 , 0.0 , 0.0 , 0.0 , 0.0 , 

125.0 , 4424.1025641 , 4611.79487179 , 4468.20512821 , 4209.74358974 , 4574.35897436 , 4578.97435897 , 4552.30769231 , 4285.12820513 , 4015.8974359 , 3870.25641026 , 4242.56410256 , 4196.92307692 , 4497.43589744 , 4496.41025641 , 1720.0 , 1693.0 , 5.91 , 0.0 , 0.0 , 0.0 , 0.0 , 

126.0 , 4420.0 , 4612.30769231 , 4465.64102564 , 4208.71794872 , 4573.84615385 , 4576.41025641 , 4552.82051282 , 4283.58974359 , 4017.43589744 , 3866.66666667 , 4237.43589744 , 4194.87179487 , 4495.8974359 , 4495.8974359 , 1719.0 , 1692.0 , 5.918 , 0.0 , 0.0 , 0.0 , 0.0 , 

127.0 , 4421.02564103 , 4611.28205128 , 4465.64102564 , 4207.17948718 , 4572.82051282 , 4579.48717949 , 4553.84615385 , 4280.51282051 , 4013.33333333 , 3865.12820513 , 4238.46153846 , 4193.33333333 , 4495.38461538 , 4492.30769231 , 1719.0 , 1693.0 , 5.926 , 0.0 , 0.0 , 0.0 , 0.0 , 

128.0 , 4423.07692308 , 4610.25641026 , 4465.64102564 , 4207.17948718 , 4574.87179487 , 4581.53846154 , 4553.33333333 , 4278.97435897 , 4012.30769231 , 3866.15384615 , 4240.51282051 , 4194.87179487 , 4494.87179487 , 4492.30769231 , 1721.0 , 1692.0 , 5.934 , 0.0 , 0.0 , 0.0 , 0.0 , 

0.0 , 4418.97435897 , 4611.28205128 , 4464.1025641 , 4208.71794872 , 4575.38461538 , 4578.46153846 , 4552.30769231 , 4276.41025641 , 4010.25641026 , 3864.1025641 , 4236.92307692 , 4193.33333333 , 4492.30769231 , 4492.82051282 , 1719.0 , 1693.0 , 5.941 , 0.0 , 0.0 , 0.0 , 0.0 , 

1.0 , 4417.43589744 , 4612.30769231 , 4464.1025641 , 4207.69230769 , 4572.30769231 , 4578.46153846 , 4551.79487179 , 4276.41025641 , 4009.74358974 , 3863.58974359 , 4237.94871795 , 4192.30769231 , 4491.79487179 , 4491.79487179 , 1720.0 , 1692.0 , 5.949 , 0.0 , 0.0 , 0.0 , 0.0 , 

2.0 , 4420.51282051 , 4610.25641026 , 4466.66666667 , 4205.64102564 , 4573.84615385 , 4583.07692308 , 4552.82051282 , 4273.84615385 , 4010.25641026 , 3863.07692308 , 4239.48717949 , 4191.28205128 , 4490.76923077 , 4492.30769231 , 1720.0 , 1693.0 , 5.957 , 0.0 , 0.0 , 0.0 , 0.0 , 

3.0 , 4421.02564103 , 4608.71794872 , 4469.23076923 , 4207.69230769 , 4575.38461538 , 4581.02564103 , 4553.84615385 , 4276.92307692 , 4014.87179487 , 3866.66666667 , 4240.0 , 4192.30769231 , 4493.84615385 , 4495.38461538 , 1720.0 , 1692.0 , 5.965 , 0.0 , 0.0 , 0.0 , 0.0 , 

4.0 , 4420.0 , 4611.28205128 , 4466.66666667 , 4209.23076923 , 4573.33333333 , 4578.97435897 , 4553.84615385 , 4280.0 , 4017.43589744 , 3867.69230769 , 4239.48717949 , 4191.28205128 , 4496.41025641 , 4493.84615385 , 1719.0 , 1693.0 , 5.972 , 0.0 , 0.0 , 0.0 , 0.0 , 

5.0 , 4421.02564103 , 4612.82051282 , 4465.64102564 , 4208.71794872 , 4570.76923077 , 4581.02564103 , 4552.82051282 , 4282.05128205 , 4021.53846154 , 3867.69230769 , 4243.58974359 , 4195.8974359 , 4497.43589744 , 4495.8974359 , 1720.0 , 1693.0 , 5.979 , 0.0 , 0.0 , 0.0 , 0.0 , 

6.0 , 4421.02564103 , 4612.30769231 , 4466.15384615 , 4208.71794872 , 4571.79487179 , 4582.05128205 , 4552.82051282 , 4282.56410256 , 4020.0 , 3867.17948718 , 4243.58974359 , 4197.43589744 , 4495.8974359 , 4497.94871795 , 1719.0 , 1693.0 , 5.987 , 0.0 , 0.0 , 0.0 , 0.0 , 

7.0 , 4420.0 , 4611.79487179 , 4467.17948718 , 4208.71794872 , 4573.84615385 , 4580.0 , 4553.84615385 , 4290.25641026 , 4022.56410256 , 3871.79487179 , 4245.12820513 , 4198.46153846 , 4500.51282051 , 4498.46153846 , 1720.0 , 1693.0 , 5.996 , 0.0 , 0.0 , 0.0 , 0.0 , 

8.0 , 4422.05128205 , 4610.76923077 , 4467.17948718 , 4207.69230769 , 4574.35897436 , 4580.51282051 , 4552.82051282 , 4291.28205128 , 4023.58974359 , 3871.28205128 , 4247.69230769 , 4200.0 , 4502.56410256 , 4497.94871795 , 1720.0 , 1692.0 , 6.004 , 0.0 , 0.0 , 0.0 , 0.0 , 

9.0 , 4424.1025641 , 4611.28205128 , 4468.71794872 , 4208.71794872 , 4573.33333333 , 4582.05128205 , 4551.79487179 , 4294.35897436 , 4024.1025641 , 3869.23076923 , 4250.25641026 , 4205.64102564 , 4502.56410256 , 4501.53846154 , 1719.0 , 1693.0 , 6.012 , 0.0 , 0.0 , 0.0 , 0.0 , 

10.0 , 4423.58974359 , 4613.33333333 , 4467.69230769 , 4209.23076923 , 4574.35897436 , 4580.0 , 4552.82051282 , 4294.35897436 , 4021.53846154 , 3869.23076923 , 4245.12820513 , 4202.56410256 , 4496.92307692 , 4499.48717949 , 1721.0 , 1692.0 , 6.02 , 0.0 , 0.0 , 0.0 , 0.0 , 

11.0 , 4422.05128205 , 4611.79487179 , 4466.15384615 , 4207.17948718 , 4573.84615385 , 4577.43589744 , 4552.82051282 , 4287.17948718 , 4021.53846154 , 3870.76923077 , 4242.56410256 , 4198.97435897 , 4495.38461538 , 4494.87179487 , 1719.0 , 1693.0 , 6.027 , 0.0 , 0.0 , 0.0 , 0.0 , 

12.0 , 4420.51282051 , 4612.30769231 , 4466.66666667 , 4206.66666667 , 4571.79487179 , 4579.48717949 , 4553.84615385 , 4284.1025641 , 4020.51282051 , 3869.74358974 , 4242.56410256 , 4198.46153846 , 4499.48717949 , 4495.38461538 , 1720.0 , 1692.0 , 6.035 , 0.0 , 0.0 , 0.0 , 0.0 , 

13.0 , 4419.48717949 , 4613.84615385 , 4465.12820513 , 4206.66666667 , 4573.84615385 , 4581.53846154 , 4554.35897436 , 4285.12820513 , 4017.94871795 , 3870.25641026 , 4242.05128205 , 4196.92307692 , 4497.94871795 , 4497.43589744 , 1720.0 , 1693.0 , 6.043 , 0.0 , 0.0 , 0.0 , 0.0 , 

14.0 , 4420.51282051 , 4613.33333333 , 4463.58974359 , 4207.17948718 , 4575.38461538 , 4580.51282051 , 4552.82051282 , 4281.53846154 , 4015.8974359 , 3869.23076923 , 4242.05128205 , 4194.35897436 , 4491.79487179 , 4494.35897436 , 1720.0 , 1693.0 , 6.051 , 0.0 , 0.0 , 0.0 , 0.0 , 

15.0 , 4422.05128205 , 4611.79487179 , 4463.07692308 , 4206.15384615 , 4573.33333333 , 4578.97435897 , 4551.79487179 , 4276.41025641 , 4012.82051282 , 3865.12820513 , 4241.02564103 , 4193.33333333 , 4490.25641026 , 4490.76923077 , 1719.0 , 1693.0 , 6.059 , 0.0 , 0.0 , 0.0 , 0.0 , 

16.0 , 4421.53846154 , 4611.79487179 , 4462.56410256 , 4206.66666667 , 4575.8974359 , 4578.97435897 , 4552.82051282 , 4277.94871795 , 4011.28205128 , 3863.58974359 , 4239.48717949 , 4191.79487179 , 4491.28205128 , 4491.79487179 , 1720.0 , 1693.0 , 6.066 , 0.0 , 0.0 , 0.0 , 0.0 , 

17.0 , 4418.97435897 , 4611.79487179 , 4463.58974359 , 4208.20512821 , 4577.94871795 , 4578.97435897 , 4552.30769231 , 4275.38461538 , 4011.28205128 , 3864.1025641 , 4236.92307692 , 4189.23076923 , 4488.20512821 , 4491.79487179 , 1719.0 , 1692.0 , 6.074 , 0.0 , 0.0 , 0.0 , 0.0 , 

18.0 , 4418.97435897 , 4608.71794872 , 4466.15384615 , 4208.20512821 , 4575.38461538 , 4578.97435897 , 4551.79487179 , 4273.33333333 , 4014.35897436 , 3864.61538462 , 4238.46153846 , 4192.30769231 , 4489.74358974 , 4492.82051282 , 1720.0 , 1693.0 , 6.082 , 0.0 , 0.0 , 0.0 , 0.0 , 

19.0 , 4421.53846154 , 4608.20512821 , 4465.12820513 , 4207.17948718 , 4574.87179487 , 4580.0 , 4552.82051282 , 4275.38461538 , 4013.33333333 , 3866.15384615 , 4239.48717949 , 4193.33333333 , 4493.84615385 , 4495.38461538 , 1720.0 , 1692.0 , 6.09 , 0.0 , 0.0 , 0.0 , 0.0 , 

20.0 , 4424.1025641 , 4610.25641026 , 4464.1025641 , 4206.15384615 , 4572.82051282 , 4578.97435897 , 4553.84615385 , 4281.53846154 , 4017.43589744 , 3868.71794872 , 4242.05128205 , 4193.84615385 , 4493.33333333 , 4497.94871795 , 1719.0 , 1694.0 , 6.098 , 0.0 , 0.0 , 0.0 , 0.0 , 

21.0 , 4424.1025641 , 4612.30769231 , 4465.12820513 , 4206.15384615 , 4570.25641026 , 4579.48717949 , 4553.33333333 , 4281.02564103 , 4020.0 , 3866.15384615 , 4241.53846154 , 4193.33333333 , 4490.25641026 , 4494.87179487 , 1720.0 , 1692.0 , 6.106 , 0.0 , 0.0 , 0.0 , 0.0 , 

22.0 , 4422.56410256 , 4611.79487179 , 4466.15384615 , 4208.71794872 , 4571.28205128 , 4580.0 , 4552.82051282 , 4285.12820513 , 4023.07692308 , 3867.69230769 , 4243.58974359 , 4197.43589744 , 4495.8974359 , 4495.38461538 , 1720.0 , 1693.0 , 6.113 , 0.0 , 0.0 , 0.0 , 0.0 , 

23.0 , 4423.07692308 , 4611.28205128 , 4464.61538462 , 4208.20512821 , 4573.33333333 , 4578.97435897 , 4553.84615385 , 4286.66666667 , 4024.1025641 , 3870.76923077 , 4244.1025641 , 4199.48717949 , 4498.46153846 , 4495.8974359 , 1721.0 , 1693.0 , 6.121 , 0.0 , 0.0 , 0.0 , 0.0 , 

24.0 , 4423.58974359 , 4611.79487179 , 4466.66666667 , 4206.15384615 , 4572.82051282 , 4579.48717949 , 4554.35897436 , 4289.74358974 , 4027.17948718 , 3872.82051282 , 4245.12820513 , 4203.07692308 , 4499.48717949 , 4498.97435897 , 1720.0 , 1693.0 , 6.128 , 0.0 , 0.0 , 0.0 , 0.0 , 

25.0 , 4422.05128205 , 4612.30769231 , 4468.20512821 , 4208.20512821 , 4574.35897436 , 4582.56410256 , 4553.33333333 , 4290.76923077 , 4025.64102564 , 3872.82051282 , 4246.15384615 , 4202.56410256 , 4498.97435897 , 4501.53846154 , 1720.0 , 1693.0 , 6.136 , 0.0 , 0.0 , 0.0 , 0.0 , 

26.0 , 4422.05128205 , 4612.82051282 , 4468.20512821 , 4209.74358974 , 4575.38461538 , 4581.02564103 , 4553.84615385 , 4293.84615385 , 4024.61538462 , 3873.33333333 , 4248.20512821 , 4200.51282051 , 4500.51282051 , 4501.02564103 , 1720.0 , 1692.0 , 6.144 , 0.0 , 0.0 , 0.0 , 0.0 , 

27.0 , 4423.58974359 , 4612.82051282 , 4466.15384615 , 4207.69230769 , 4573.84615385 , 4579.48717949 , 4553.84615385 , 4291.28205128 , 4022.05128205 , 3870.25641026 , 4242.56410256 , 4198.46153846 , 4498.97435897 , 4495.8974359 , 1720.0 , 1692.0 , 6.151 , 0.0 , 0.0 , 0.0 , 0.0 , 

28.0 , 4423.07692308 , 4610.76923077 , 4465.12820513 , 4207.17948718 , 4573.84615385 , 4580.0 , 4552.30769231 , 4284.61538462 , 4019.48717949 , 3868.71794872 , 4238.46153846 , 4199.48717949 , 4496.41025641 , 4493.84615385 , 1719.0 , 1692.0 , 6.16 , 0.0 , 0.0 , 0.0 , 0.0 , 

29.0 , 4422.05128205 , 4611.28205128 , 4466.66666667 , 4209.23076923 , 4574.35897436 , 4577.94871795 , 4553.33333333 , 4284.1025641 , 4021.02564103 , 3868.71794872 , 4240.51282051 , 4197.94871795 , 4496.41025641 , 4494.87179487 , 1720.0 , 1693.0 , 6.167 , 0.0 , 0.0 , 0.0 , 0.0 , 

30.0 , 4421.53846154 , 4612.82051282 , 4469.23076923 , 4209.23076923 , 4573.84615385 , 4574.87179487 , 4554.87179487 , 4285.64102564 , 4020.0 , 3865.64102564 , 4242.56410256 , 4196.41025641 , 4497.43589744 , 4494.35897436 , 1719.0 , 1693.0 , 6.175 , 0.0 , 0.0 , 0.0 , 0.0 , 

31.0 , 4420.51282051 , 4610.76923077 , 4466.66666667 , 4208.20512821 , 4573.33333333 , 4577.43589744 , 4552.82051282 , 4284.1025641 , 4015.8974359 , 3866.15384615 , 4240.51282051 , 4196.41025641 , 4494.35897436 , 4492.82051282 , 1720.0 , 1692.0 , 6.184 , 0.0 , 0.0 , 0.0 , 0.0 , 

32.0 , 4420.0 , 4609.74358974 , 4461.53846154 , 4206.15384615 , 4573.84615385 , 4580.51282051 , 4551.79487179 , 4277.43589744 , 4011.28205128 , 3868.20512821 , 4235.8974359 , 4192.82051282 , 4488.71794872 , 4490.76923077 , 1720.0 , 1692.0 , 6.192 , 0.0 , 0.0 , 0.0 , 0.0 , 

33.0 , 4420.0 , 4611.79487179 , 4463.07692308 , 4202.56410256 , 4574.87179487 , 4580.0 , 4553.33333333 , 4273.33333333 , 4011.79487179 , 3864.61538462 , 4235.8974359 , 4188.71794872 , 4488.71794872 , 4489.74358974 , 1720.0 , 1692.0 , 6.199 , 0.0 , 0.0 , 0.0 , 0.0 , 

34.0 , 4421.02564103 , 4609.23076923 , 4467.17948718 , 4203.58974359 , 4574.87179487 , 4578.46153846 , 4553.84615385 , 4273.33333333 , 4011.79487179 , 3863.07692308 , 4238.97435897 , 4190.25641026 , 4490.76923077 , 4492.30769231 , 1719.0 , 1693.0 , 6.207 , 0.0 , 0.0 , 0.0 , 0.0 , 

35.0 , 4421.53846154 , 4607.69230769 , 4467.17948718 , 4207.69230769 , 4573.33333333 , 4579.48717949 , 4552.82051282 , 4279.48717949 , 4013.84615385 , 3867.69230769 , 4242.05128205 , 4197.43589744 , 4491.28205128 , 4494.87179487 , 1721.0 , 1693.0 , 6.215 , 0.0 , 0.0 , 0.0 , 0.0 , 

36.0 , 4421.53846154 , 4610.76923077 , 4464.61538462 , 4207.69230769 , 4574.87179487 , 4581.53846154 , 4551.79487179 , 4280.0 , 4015.8974359 , 3868.71794872 , 4241.02564103 , 4197.43589744 , 4492.30769231 , 4494.87179487 , 1719.0 , 1692.0 , 6.223 , 0.0 , 0.0 , 0.0 , 0.0 , 

37.0 , 4423.07692308 , 4612.82051282 , 4464.61538462 , 4207.69230769 , 4573.84615385 , 4581.02564103 , 4553.33333333 , 4282.05128205 , 4021.53846154 , 3869.23076923 , 4243.07692308 , 4195.38461538 , 4496.41025641 , 4498.97435897 , 1720.0 , 1693.0 , 6.231 , 0.0 , 0.0 , 0.0 , 0.0 , 

38.0 , 4423.07692308 , 4613.33333333 , 4464.1025641 , 4208.71794872 , 4569.74358974 , 4578.97435897 , 4554.87179487 , 4283.07692308 , 4018.46153846 , 3867.69230769 , 4241.53846154 , 4194.35897436 , 4494.87179487 , 4500.0 , 1720.0 , 1692.0 , 6.238 , 0.0 , 0.0 , 0.0 , 0.0 , 

39.0 , 4423.07692308 , 4613.33333333 , 4466.15384615 , 4209.23076923 , 4572.82051282 , 4581.02564103 , 4552.82051282 , 4287.69230769 , 4020.0 , 3869.74358974 , 4244.61538462 , 4201.02564103 , 4495.8974359 , 4497.94871795 , 1719.0 , 1693.0 , 6.246 , 0.0 , 0.0 , 0.0 , 0.0 , 

40.0 , 4420.0 , 4612.82051282 , 4466.66666667 , 4209.74358974 , 4577.43589744 , 4583.58974359 , 4552.82051282 , 4287.17948718 , 4022.56410256 , 3870.25641026 , 4246.15384615 , 4200.0 , 4497.94871795 , 4495.8974359 , 1721.0 , 1692.0 , 6.254 , 0.0 , 0.0 , 0.0 , 0.0 , 

41.0 , 4418.46153846 , 4612.30769231 , 4466.66666667 , 4209.23076923 , 4574.87179487 , 4581.02564103 , 4554.35897436 , 4292.82051282 , 4025.12820513 , 3872.82051282 , 4247.17948718 , 4201.02564103 , 4503.58974359 , 4499.48717949 , 1719.0 , 1693.0 , 6.262 , 0.0 , 0.0 , 0.0 , 0.0 , 

42.0 , 4423.07692308 , 4613.33333333 , 4464.1025641 , 4207.69230769 , 4573.84615385 , 4578.97435897 , 4554.35897436 , 4293.84615385 , 4022.05128205 , 3871.79487179 , 4245.12820513 , 4202.05128205 , 4502.05128205 , 4498.46153846 , 1721.0 , 1693.0 , 6.27 , 0.0 , 0.0 , 0.0 , 0.0 , 

43.0 , 4424.61538462 , 4612.30769231 , 4464.61538462 , 4207.69230769 , 4575.38461538 , 4580.0 , 4552.30769231 , 4289.74358974 , 4020.51282051 , 3868.71794872 , 4244.1025641 , 4198.97435897 , 4497.43589744 , 4495.38461538 , 1719.0 , 1692.0 , 6.278 , 0.0 , 0.0 , 0.0 , 0.0 , 

44.0 , 4421.02564103 , 4612.82051282 , 4466.15384615 , 4208.20512821 , 4574.35897436 , 4580.51282051 , 4551.79487179 , 4286.15384615 , 4020.51282051 , 3867.69230769 , 4243.07692308 , 4195.38461538 , 4494.87179487 , 4494.87179487 , 1720.0 , 1693.0 , 6.285 , 0.0 , 0.0 , 0.0 , 0.0 , 

45.0 , 4421.02564103 , 4615.38461538 , 4464.61538462 , 4207.17948718 , 4572.82051282 , 4580.0 , 4552.82051282 , 4285.12820513 , 4021.53846154 , 3868.71794872 , 4242.05128205 , 4198.97435897 , 4495.8974359 , 4496.92307692 , 1719.0 , 1692.0 , 6.292 , 0.0 , 0.0 , 0.0 , 0.0 , 

46.0 , 4422.05128205 , 4614.87179487 , 4463.07692308 , 4207.17948718 , 4574.35897436 , 4580.0 , 4553.84615385 , 4285.64102564 , 4020.51282051 , 3868.20512821 , 4241.02564103 , 4200.0 , 4496.41025641 , 4496.92307692 , 1720.0 , 1692.0 , 6.301 , 0.0 , 0.0 , 0.0 , 0.0 , 

47.0 , 4418.46153846 , 4611.28205128 , 4464.1025641 , 4207.17948718 , 4573.33333333 , 4580.0 , 4553.33333333 , 4283.07692308 , 4014.35897436 , 3866.66666667 , 4238.97435897 , 4193.33333333 , 4494.35897436 , 4494.87179487 , 1720.0 , 1692.0 , 6.309 , 0.0 , 0.0 , 0.0 , 0.0 , 

48.0 , 4419.48717949 , 4610.76923077 , 4463.58974359 , 4206.15384615 , 4573.33333333 , 4580.0 , 4552.82051282 , 4281.02564103 , 4013.33333333 , 3866.15384615 , 4238.46153846 , 4191.28205128 , 4492.82051282 , 4495.38461538 , 1720.0 , 1693.0 , 6.317 , 0.0 , 0.0 , 0.0 , 0.0 , 

49.0 , 4423.58974359 , 4610.76923077 , 4462.05128205 , 4206.66666667 , 4574.35897436 , 4579.48717949 , 4552.82051282 , 4273.84615385 , 4013.84615385 , 3863.58974359 , 4238.46153846 , 4191.79487179 , 4489.74358974 , 4492.30769231 , 1720.0 , 1692.0 , 6.324 , 0.0 , 0.0 , 0.0 , 0.0 , 

50.0 , 4422.05128205 , 4609.74358974 , 4462.56410256 , 4206.66666667 , 4574.35897436 , 4577.94871795 , 4553.33333333 , 4272.82051282 , 4013.84615385 , 3864.1025641 , 4241.53846154 , 4190.76923077 , 4490.76923077 , 4491.28205128 , 1720.0 , 1693.0 , 6.332 , 0.0 , 0.0 , 0.0 , 0.0 , 

51.0 , 4421.02564103 , 4611.28205128 , 4464.1025641 , 4207.17948718 , 4573.33333333 , 4579.48717949 , 4553.84615385 , 4277.43589744 , 4013.33333333 , 3866.15384615 , 4242.05128205 , 4189.74358974 , 4492.30769231 , 4492.82051282 , 1721.0 , 1692.0 , 6.34 , 0.0 , 0.0 , 0.0 , 0.0 , 

52.0 , 4422.56410256 , 4612.82051282 , 4464.61538462 , 4208.71794872 , 4573.33333333 , 4581.53846154 , 4553.33333333 , 4281.53846154 , 4018.46153846 , 3866.66666667 , 4240.0 , 4193.33333333 , 4493.33333333 , 4492.30769231 , 1719.0 , 1693.0 , 6.348 , 0.0 , 0.0 , 0.0 , 0.0 , 

53.0 , 4420.51282051 , 4611.79487179 , 4465.64102564 , 4208.20512821 , 4574.35897436 , 4581.02564103 , 4553.33333333 , 4277.94871795 , 4017.94871795 , 3866.15384615 , 4238.46153846 , 4194.35897436 , 4492.30769231 , 4491.28205128 , 1720.0 , 1693.0 , 6.356 , 0.0 , 0.0 , 0.0 , 0.0 , 

54.0 , 4420.51282051 , 4613.84615385 , 4467.69230769 , 4207.17948718 , 4575.38461538 , 4578.97435897 , 4553.33333333 , 4284.1025641 , 4020.0 , 3870.25641026 , 4243.07692308 , 4198.97435897 , 4496.92307692 , 4497.43589744 , 1719.0 , 1693.0 , 6.364 , 0.0 , 0.0 , 0.0 , 0.0 , 

55.0 , 4423.58974359 , 4615.38461538 , 4466.15384615 , 4206.66666667 , 4574.87179487 , 4579.48717949 , 4553.33333333 , 4286.66666667 , 4020.51282051 , 3869.23076923 , 4245.12820513 , 4199.48717949 , 4497.94871795 , 4498.97435897 , 1720.0 , 1693.0 , 6.371 , 0.0 , 0.0 , 0.0 , 0.0 , 

56.0 , 4422.56410256 , 4612.30769231 , 4466.15384615 , 4208.20512821 , 4574.35897436 , 4581.02564103 , 4553.84615385 , 4287.17948718 , 4023.58974359 , 3870.25641026 , 4247.17948718 , 4201.02564103 , 4500.51282051 , 4498.46153846 , 1720.0 , 1691.0 , 6.379 , 0.0 , 0.0 , 0.0 , 0.0 , 

57.0 , 4422.05128205 , 4608.20512821 , 4467.69230769 , 4209.74358974 , 4575.38461538 , 4582.05128205 , 4554.87179487 , 4289.23076923 , 4022.56410256 , 3871.79487179 , 4243.58974359 , 4200.0 , 4503.07692308 , 4496.92307692 , 1720.0 , 1693.0 , 6.387 , 0.0 , 0.0 , 0.0 , 0.0 , 

58.0 , 4424.1025641 , 4609.23076923 , 4467.69230769 , 4210.25641026 , 4575.38461538 , 4580.51282051 , 4553.33333333 , 4296.41025641 , 4026.15384615 , 3872.30769231 , 4243.58974359 , 4202.56410256 , 4504.61538462 , 4498.97435897 , 1720.0 , 1692.0 , 6.395 , 0.0 , 0.0 , 0.0 , 0.0 , 

59.0 , 4421.53846154 , 4613.33333333 , 4463.58974359 , 4207.17948718 , 4574.35897436 , 4578.97435897 , 4550.76923077 , 4294.35897436 , 4024.61538462 , 3866.15384615 , 4245.12820513 , 4202.56410256 , 4499.48717949 , 4500.0 , 1721.0 , 1692.0 , 6.402 , 0.0 , 0.0 , 0.0 , 0.0 , 

60.0 , 4419.48717949 , 4612.82051282 , 4464.1025641 , 4204.1025641 , 4572.82051282 , 4579.48717949 , 4552.30769231 , 4287.17948718 , 4021.02564103 , 3865.64102564 , 4243.58974359 , 4197.43589744 , 4494.35897436 , 4498.97435897 , 1720.0 , 1692.0 , 6.41 , 0.0 , 0.0 , 0.0 , 0.0 , 

61.0 , 4421.53846154 , 4610.76923077 , 4466.15384615 , 4205.64102564 , 4573.33333333 , 4582.05128205 , 4553.84615385 , 4286.15384615 , 4020.51282051 , 3868.71794872 , 4240.0 , 4195.8974359 , 4494.87179487 , 4497.94871795 , 1719.0 , 1694.0 , 6.417 , 0.0 , 0.0 , 0.0 , 0.0 , 

62.0 , 4420.51282051 , 4610.25641026 , 4466.66666667 , 4208.71794872 , 4573.84615385 , 4582.05128205 , 4552.30769231 , 4285.12820513 , 4021.53846154 , 3866.66666667 , 4239.48717949 , 4198.97435897 , 4495.8974359 , 4496.41025641 , 1721.0 , 1693.0 , 6.427 , 0.0 , 0.0 , 0.0 , 0.0 , 

63.0 , 4420.0 , 4610.25641026 , 4465.12820513 , 4209.23076923 , 4572.30769231 , 4580.51282051 , 4552.30769231 , 4282.05128205 , 4020.0 , 3863.58974359 , 4241.02564103 , 4195.38461538 , 4494.87179487 , 4493.33333333 , 1719.0 , 1692.0 , 6.434 , 0.0 , 0.0 , 0.0 , 0.0 , 

64.0 , 4424.1025641 , 4609.23076923 , 4464.61538462 , 4208.20512821 , 4571.28205128 , 4578.46153846 , 4553.84615385 , 4277.94871795 , 4015.38461538 , 3864.1025641 , 4238.97435897 , 4189.23076923 , 4491.79487179 , 4492.30769231 , 1721.0 , 1693.0 , 6.442 , 0.0 , 0.0 , 0.0 , 0.0 , 

65.0 , 4423.58974359 , 4611.79487179 , 4466.15384615 , 4209.74358974 , 4572.82051282 , 4579.48717949 , 4553.33333333 , 4277.94871795 , 4013.33333333 , 3864.61538462 , 4235.38461538 , 4190.25641026 , 4488.71794872 , 4493.33333333 , 1720.0 , 1692.0 , 6.45 , 0.0 , 0.0 , 0.0 , 0.0 , 

66.0 , 4419.48717949 , 4613.33333333 , 4464.1025641 , 4210.25641026 , 4573.84615385 , 4583.07692308 , 4553.84615385 , 4275.8974359 , 4012.30769231 , 3862.56410256 , 4235.8974359 , 4190.76923077 , 4486.66666667 , 4489.74358974 , 1719.0 , 1692.0 , 6.457 , 0.0 , 0.0 , 0.0 , 0.0 , 

67.0 , 4421.53846154 , 4611.79487179 , 4463.07692308 , 4208.71794872 , 4574.35897436 , 4581.53846154 , 4552.82051282 , 4277.43589744 , 4013.84615385 , 3864.61538462 , 4242.05128205 , 4191.28205128 , 4492.82051282 , 4489.74358974 , 1720.0 , 1692.0 , 6.465 , 0.0 , 0.0 , 0.0 , 0.0 , 

68.0 , 4424.61538462 , 4611.79487179 , 4466.15384615 , 4207.69230769 , 4574.87179487 , 4577.43589744 , 4551.28205128 , 4279.48717949 , 4015.8974359 , 3866.66666667 , 4242.56410256 , 4193.84615385 , 4497.43589744 , 4494.87179487 , 1720.0 , 1693.0 , 6.473 , 0.0 , 0.0 , 0.0 , 0.0 , 

69.0 , 4422.56410256 , 4612.30769231 , 4468.20512821 , 4207.69230769 , 4573.84615385 , 4578.46153846 , 4552.82051282 , 4281.53846154 , 4021.02564103 , 3867.69230769 , 4242.05128205 , 4197.94871795 , 4497.43589744 , 4497.94871795 , 1720.0 , 1692.0 , 6.481 , 0.0 , 0.0 , 0.0 , 0.0 , 

70.0 , 4421.02564103 , 4612.30769231 , 4466.66666667 , 4207.69230769 , 4572.82051282 , 4582.05128205 , 4554.87179487 , 4279.48717949 , 4020.51282051 , 3867.17948718 , 4243.07692308 , 4196.41025641 , 4495.8974359 , 4493.84615385 , 1719.0 , 1693.0 , 6.489 , 0.0 , 0.0 , 0.0 , 0.0 , 

71.0 , 4422.05128205 , 4611.79487179 , 4467.69230769 , 4206.66666667 , 4574.87179487 , 4583.07692308 , 4553.84615385 , 4286.15384615 , 4021.53846154 , 3870.76923077 , 4245.64102564 , 4199.48717949 , 4503.07692308 , 4495.38461538 , 1721.0 , 1692.0 , 6.497 , 0.0 , 0.0 , 0.0 , 0.0 , 

72.0 , 4419.48717949 , 4610.76923077 , 4466.66666667 , 4205.64102564 , 4575.8974359 , 4582.05128205 , 4551.28205128 , 4288.71794872 , 4020.51282051 , 3869.74358974 , 4243.58974359 , 4198.46153846 , 4502.56410256 , 4495.8974359 , 1720.0 , 1693.0 , 6.504 , 0.0 , 0.0 , 0.0 , 0.0 , 

73.0 , 4419.48717949 , 4610.76923077 , 4464.61538462 , 4206.66666667 , 4574.35897436 , 4580.0 , 4551.79487179 , 4291.79487179 , 4026.15384615 , 3868.71794872 , 4247.17948718 , 4198.97435897 , 4500.0 , 4496.92307692 , 1720.0 , 1693.0 , 6.512 , 0.0 , 0.0 , 0.0 , 0.0 , 

74.0 , 4423.58974359 , 4613.84615385 , 4465.12820513 , 4208.71794872 , 4573.84615385 , 4579.48717949 , 4554.35897436 , 4293.84615385 , 4026.15384615 , 3869.74358974 , 4247.17948718 , 4199.48717949 , 4500.51282051 , 4498.97435897 , 1719.0 , 1692.0 , 6.52 , 0.0 , 0.0 , 0.0 , 0.0 , 

75.0 , 4424.61538462 , 4612.82051282 , 4464.61538462 , 4207.69230769 , 4573.84615385 , 4580.0 , 4553.84615385 , 4292.30769231 , 4022.56410256 , 3871.79487179 , 4243.58974359 , 4200.51282051 , 4500.51282051 , 4498.97435897 , 1721.0 , 1693.0 , 6.528 , 0.0 , 0.0 , 0.0 , 0.0 , 

76.0 , 4422.56410256 , 4609.74358974 , 4462.56410256 , 4209.23076923 , 4573.33333333 , 4581.02564103 , 4552.30769231 , 4286.15384615 , 4021.53846154 , 3869.23076923 , 4240.0 , 4197.94871795 , 4496.92307692 , 4495.38461538 , 1720.0 , 1692.0 , 6.535 , 0.0 , 0.0 , 0.0 , 0.0 , 

77.0 , 4421.53846154 , 4611.79487179 , 4465.12820513 , 4210.25641026 , 4573.33333333 , 4581.53846154 , 4553.33333333 , 4283.07692308 , 4020.0 , 3866.66666667 , 4242.05128205 , 4197.43589744 , 4495.38461538 , 4495.8974359 , 1720.0 , 1693.0 , 6.542 , 0.0 , 0.0 , 0.0 , 0.0 , 

78.0 , 4421.53846154 , 4613.84615385 , 4468.71794872 , 4207.17948718 , 4575.38461538 , 4582.56410256 , 4553.84615385 , 4284.1025641 , 4016.92307692 , 3866.15384615 , 4242.05128205 , 4197.94871795 , 4496.41025641 , 4498.97435897 , 1721.0 , 1692.0 , 6.55 , 0.0 , 0.0 , 0.0 , 0.0 , 

79.0 , 4422.56410256 , 4611.79487179 , 4467.17948718 , 4206.66666667 , 4574.35897436 , 4581.02564103 , 4552.30769231 , 4282.56410256 , 4013.33333333 , 3865.64102564 , 4237.43589744 , 4196.41025641 , 4496.41025641 , 4495.8974359 , 1719.0 , 1693.0 , 6.559 , 0.0 , 0.0 , 0.0 , 0.0 , 

80.0 , 4423.07692308 , 4613.33333333 , 4464.61538462 , 4209.74358974 , 4572.82051282 , 4579.48717949 , 4552.82051282 , 4280.0 , 4014.87179487 , 3865.64102564 , 4235.8974359 , 4194.87179487 , 4494.35897436 , 4491.28205128 , 1720.0 , 1692.0 , 6.566 , 0.0 , 0.0 , 0.0 , 0.0 , 

81.0 , 4420.0 , 4614.87179487 , 4463.58974359 , 4208.71794872 , 4573.84615385 , 4581.53846154 , 4552.82051282 , 4274.35897436 , 4013.84615385 , 3865.64102564 , 4236.41025641 , 4191.28205128 , 4490.76923077 , 4490.25641026 , 1720.0 , 1693.0 , 6.575 , 0.0 , 0.0 , 0.0 , 0.0 , 

82.0 , 4420.0 , 4611.79487179 , 4464.1025641 , 4206.15384615 , 4574.87179487 , 4582.05128205 , 4552.82051282 , 4274.35897436 , 4011.28205128 , 3865.64102564 , 4236.92307692 , 4191.28205128 , 4490.25641026 , 4490.76923077 , 1720.0 , 1693.0 , 6.583 , 0.0 , 0.0 , 0.0 , 0.0 , 

83.0 , 4422.56410256 , 4611.79487179 , 4465.12820513 , 4206.66666667 , 4573.33333333 , 4580.51282051 , 4554.35897436 , 4275.8974359 , 4010.76923077 , 3864.1025641 , 4236.41025641 , 4191.79487179 , 4492.30769231 , 4491.79487179 , 1719.0 , 1692.0 , 6.59 , 0.0 , 0.0 , 0.0 , 0.0 , 

84.0 , 4422.05128205 , 4613.84615385 , 4465.12820513 , 4207.69230769 , 4574.35897436 , 4581.53846154 , 4553.84615385 , 4278.97435897 , 4016.92307692 , 3864.61538462 , 4237.43589744 , 4192.82051282 , 4493.84615385 , 4493.33333333 , 1720.0 , 1693.0 , 6.598 , 0.0 , 0.0 , 0.0 , 0.0 , 

85.0 , 4422.05128205 , 4612.82051282 , 4462.56410256 , 4208.71794872 , 4577.94871795 , 4582.56410256 , 4551.79487179 , 4281.53846154 , 4018.97435897 , 3864.1025641 , 4238.46153846 , 4191.79487179 , 4493.33333333 , 4492.82051282 , 1720.0 , 1693.0 , 6.606 , 0.0 , 0.0 , 0.0 , 0.0 , 

86.0 , 4423.07692308 , 4612.30769231 , 4463.07692308 , 4209.23076923 , 4575.38461538 , 4580.51282051 , 4552.30769231 , 4285.64102564 , 4020.0 , 3867.17948718 , 4244.61538462 , 4198.46153846 , 4497.43589744 , 4497.94871795 , 1720.0 , 1692.0 , 6.614 , 0.0 , 0.0 , 0.0 , 0.0 , 

87.0 , 4421.53846154 , 4612.82051282 , 4466.15384615 , 4209.23076923 , 4571.28205128 , 4578.97435897 , 4552.82051282 , 4283.07692308 , 4020.0 , 3869.23076923 , 4245.64102564 , 4200.0 , 4496.92307692 , 4501.02564103 , 1720.0 , 1693.0 , 6.622 , 0.0 , 0.0 , 0.0 , 0.0 , 

88.0 , 4420.0 , 4608.71794872 , 4469.23076923 , 4209.74358974 , 4572.82051282 , 4578.46153846 , 4551.79487179 , 4286.66666667 , 4023.58974359 , 3872.30769231 , 4247.17948718 , 4200.0 , 4498.97435897 , 4497.94871795 , 1720.0 , 1692.0 , 6.629 , 0.0 , 0.0 , 0.0 , 0.0 , 

89.0 , 4420.51282051 , 4609.74358974 , 4468.20512821 , 4209.23076923 , 4575.8974359 , 4578.46153846 , 4551.79487179 , 4290.25641026 , 4022.56410256 , 3870.25641026 , 4247.69230769 , 4201.02564103 , 4500.0 , 4495.38461538 , 1720.0 , 1693.0 , 6.637 , 0.0 , 0.0 , 0.0 , 0.0 , 

90.0 , 4422.05128205 , 4615.38461538 , 4466.66666667 , 4207.17948718 , 4575.38461538 , 4577.94871795 , 4553.33333333 , 4292.82051282 , 4027.17948718 , 3869.23076923 , 4247.17948718 , 4203.07692308 , 4501.02564103 , 4501.53846154 , 1720.0 , 1692.0 , 6.645 , 0.0 , 0.0 , 0.0 , 0.0 , 

91.0 , 4423.07692308 , 4614.87179487 , 4466.15384615 , 4208.71794872 , 4574.35897436 , 4578.97435897 , 4553.84615385 , 4288.71794872 , 4024.61538462 , 3868.71794872 , 4242.56410256 , 4200.0 , 4497.94871795 , 4500.0 , 1719.0 , 1693.0 , 6.653 , 0.0 , 0.0 , 0.0 , 0.0 , 

92.0 , 4423.07692308 , 4611.28205128 , 4466.66666667 , 4209.74358974 , 4575.38461538 , 4580.51282051 , 4552.82051282 , 4285.12820513 , 4018.97435897 , 3869.74358974 , 4244.1025641 , 4201.53846154 , 4497.94871795 , 4496.41025641 , 1720.0 , 1692.0 , 6.661 , 0.0 , 0.0 , 0.0 , 0.0 , 

93.0 , 4423.07692308 , 4611.28205128 , 4465.64102564 , 4207.17948718 , 4575.38461538 , 4581.02564103 , 4553.84615385 , 4285.64102564 , 4020.0 , 3869.74358974 , 4244.1025641 , 4201.02564103 , 4499.48717949 , 4496.92307692 , 1719.0 , 1692.0 , 6.669 , 0.0 , 0.0 , 0.0 , 0.0 , 

94.0 , 4422.56410256 , 4611.28205128 , 4464.61538462 , 4206.15384615 , 4573.33333333 , 4578.46153846 , 4553.84615385 , 4285.12820513 , 4021.53846154 , 3867.17948718 , 4240.0 , 4194.87179487 , 4496.41025641 , 4495.38461538 , 1721.0 , 1693.0 , 6.676 , 0.0 , 0.0 , 0.0 , 0.0 , 

95.0 , 4422.05128205 , 4610.25641026 , 4464.1025641 , 4208.71794872 , 4573.33333333 , 4578.97435897 , 4552.30769231 , 4280.0 , 4017.43589744 , 3865.64102564 , 4241.02564103 , 4192.30769231 , 4493.84615385 , 4492.82051282 , 1720.0 , 1692.0 , 6.683 , 0.0 , 0.0 , 0.0 , 0.0 , 

96.0 , 4421.02564103 , 4611.28205128 , 4464.61538462 , 4207.17948718 , 4575.38461538 , 4581.02564103 , 4551.79487179 , 4276.41025641 , 4010.76923077 , 3863.58974359 , 4241.53846154 , 4193.84615385 , 4490.25641026 , 4494.35897436 , 1720.0 , 1692.0 , 6.692 , 0.0 , 0.0 , 0.0 , 0.0 , 

97.0 , 4422.05128205 , 4612.30769231 , 4464.1025641 , 4205.64102564 , 4574.87179487 , 4579.48717949 , 4552.30769231 , 4278.46153846 , 4012.30769231 , 3863.07692308 , 4238.97435897 , 4193.33333333 , 4490.25641026 , 4494.35897436 , 1721.0 , 1692.0 , 6.7 , 0.0 , 0.0 , 0.0 , 0.0 , 

98.0 , 4422.05128205 , 4612.30769231 , 4462.56410256 , 4207.69230769 , 4572.82051282 , 4578.46153846 , 4551.79487179 , 4275.38461538 , 4012.82051282 , 3863.07692308 , 4236.41025641 , 4191.28205128 , 4490.25641026 , 4490.76923077 , 1719.0 , 1693.0 , 6.708 , 0.0 , 0.0 , 0.0 , 0.0 , 

99.0 , 4421.53846154 , 4612.30769231 , 4465.64102564 , 4207.69230769 , 4573.33333333 , 4581.02564103 , 4550.76923077 , 4275.38461538 , 4011.28205128 , 3864.61538462 , 4238.46153846 , 4194.35897436 , 4491.79487179 , 4490.76923077 , 1720.0 , 1693.0 , 6.715 , 0.0 , 0.0 , 0.0 , 0.0 , 

100.0 , 4421.02564103 , 4612.82051282 , 4467.17948718 , 4205.12820513 , 4575.8974359 , 4580.51282051 , 4552.30769231 , 4276.92307692 , 4011.79487179 , 3865.12820513 , 4240.51282051 , 4194.87179487 , 4494.35897436 , 4493.84615385 , 1719.0 , 1693.0 , 6.723 , 0.0 , 0.0 , 0.0 , 0.0 , 

101.0 , 4422.05128205 , 4610.76923077 , 4464.61538462 , 4206.15384615 , 4574.35897436 , 4577.43589744 , 4554.35897436 , 4281.53846154 , 4020.0 , 3866.66666667 , 4242.05128205 , 4194.35897436 , 4494.87179487 , 4494.87179487 , 1720.0 , 1692.0 , 6.731 , 0.0 , 0.0 , 0.0 , 0.0 , 

102.0 , 4422.56410256 , 4609.23076923 , 4464.61538462 , 4210.25641026 , 4571.28205128 , 4579.48717949 , 4553.84615385 , 4283.07692308 , 4020.0 , 3866.66666667 , 4240.51282051 , 4191.79487179 , 4492.82051282 , 4491.28205128 , 1719.0 , 1693.0 , 6.739 , 0.0 , 0.0 , 0.0 , 0.0 , 

103.0 , 4421.53846154 , 4608.71794872 , 4468.71794872 , 4210.25641026 , 4572.30769231 , 4580.0 , 4552.82051282 , 4286.15384615 , 4018.46153846 , 3869.23076923 , 4244.61538462 , 4195.38461538 , 4497.43589744 , 4496.41025641 , 1721.0 , 1692.0 , 6.747 , 0.0 , 0.0 , 0.0 , 0.0 , 

104.0 , 4421.02564103 , 4611.28205128 , 4466.66666667 , 4207.69230769 , 4575.8974359 , 4577.94871795 , 4552.30769231 , 4285.64102564 , 4018.97435897 , 3867.69230769 , 4245.12820513 , 4194.87179487 , 4498.97435897 , 4499.48717949 , 1719.0 , 1692.0 , 6.755 , 0.0 , 0.0 , 0.0 , 0.0 , 

105.0 , 4422.05128205 , 4614.35897436 , 4466.66666667 , 4207.17948718 , 4573.84615385 , 4579.48717949 , 4552.82051282 , 4292.30769231 , 4023.58974359 , 3868.71794872 , 4244.61538462 , 4196.92307692 , 4500.51282051 , 4499.48717949 , 1720.0 , 1693.0 , 6.762 , 0.0 , 0.0 , 0.0 , 0.0 , 

106.0 , 4422.56410256 , 4613.84615385 , 4468.71794872 , 4207.17948718 , 4571.79487179 , 4582.05128205 , 4553.33333333 , 4293.84615385 , 4021.53846154 , 3870.25641026 , 4244.1025641 , 4200.51282051 , 4502.05128205 , 4498.97435897 , 1720.0 , 1692.0 , 6.769 , 0.0 , 0.0 , 0.0 , 0.0 , 

107.0 , 4421.02564103 , 4611.28205128 , 4467.69230769 , 4206.66666667 , 4573.33333333 , 4580.51282051 , 4552.30769231 , 4290.76923077 , 4023.07692308 , 3870.76923077 , 4247.17948718 , 4202.56410256 , 4503.07692308 , 4498.46153846 , 1720.0 , 1693.0 , 6.777 , 0.0 , 0.0 , 0.0 , 0.0 , 

108.0 , 4421.53846154 , 4610.76923077 , 4465.12820513 , 4207.69230769 , 4576.41025641 , 4581.53846154 , 4551.28205128 , 4287.69230769 , 4021.53846154 , 3866.66666667 , 4243.58974359 , 4198.97435897 , 4498.97435897 , 4496.41025641 , 1721.0 , 1692.0 , 6.786 , 0.0 , 0.0 , 0.0 , 0.0 , 

109.0 , 4422.56410256 , 4611.28205128 , 4466.15384615 , 4209.23076923 , 4574.87179487 , 4581.53846154 , 4552.30769231 , 4286.15384615 , 4016.92307692 , 3864.1025641 , 4241.53846154 , 4197.94871795 , 4497.94871795 , 4494.87179487 , 1719.0 , 1693.0 , 6.793 , 0.0 , 0.0 , 0.0 , 0.0 , 

110.0 , 4421.53846154 , 4612.30769231 , 4466.15384615 , 4209.23076923 , 4571.79487179 , 4577.94871795 , 4552.82051282 , 4285.12820513 , 4017.94871795 , 3866.66666667 , 4241.02564103 , 4198.46153846 , 4498.97435897 , 4494.35897436 , 1720.0 , 1693.0 , 6.801 , 0.0 , 0.0 , 0.0 , 0.0 , 

111.0 , 4421.53846154 , 4611.79487179 , 4465.12820513 , 4209.23076923 , 4571.28205128 , 4575.8974359 , 4552.82051282 , 4286.15384615 , 4022.05128205 , 3868.71794872 , 4239.48717949 , 4197.43589744 , 4496.41025641 , 4494.87179487 , 1720.0 , 1692.0 , 6.809 , 0.0 , 0.0 , 0.0 , 0.0 , 

112.0 , 4421.53846154 , 4609.23076923 , 4464.1025641 , 4208.71794872 , 4570.25641026 , 4580.0 , 4552.30769231 , 4287.69230769 , 4017.94871795 , 3868.71794872 , 4241.53846154 , 4194.35897436 , 4492.82051282 , 4494.35897436 , 1720.0 , 1692.0 , 6.817 , 0.0 , 0.0 , 0.0 , 0.0 , 

113.0 , 4420.0 , 4607.69230769 , 4464.1025641 , 4208.71794872 , 4571.28205128 , 4582.56410256 , 4551.79487179 , 4279.48717949 , 4010.76923077 , 3866.15384615 , 4238.97435897 , 4190.76923077 , 4492.82051282 , 4491.28205128 , 1720.0 , 1693.0 , 6.825 , 0.0 , 0.0 , 0.0 , 0.0 , 

114.0 , 4420.0 , 4611.28205128 , 4465.12820513 , 4209.23076923 , 4570.76923077 , 4581.02564103 , 4552.82051282 , 4273.33333333 , 4012.82051282 , 3864.1025641 , 4235.8974359 , 4191.28205128 , 4493.84615385 , 4490.76923077 , 1720.0 , 1693.0 , 6.833 , 0.0 , 0.0 , 0.0 , 0.0 , 

115.0 , 4422.56410256 , 4611.79487179 , 4464.61538462 , 4208.20512821 , 4569.74358974 , 4579.48717949 , 4552.82051282 , 4274.87179487 , 4014.35897436 , 3865.12820513 , 4235.8974359 , 4192.82051282 , 4491.79487179 , 4491.79487179 , 1720.0 , 1692.0 , 6.841 , 0.0 , 0.0 , 0.0 , 0.0 , 

116.0 , 4421.53846154 , 4608.20512821 , 4463.58974359 , 4208.20512821 , 4572.30769231 , 4580.51282051 , 4552.30769231 , 4281.02564103 , 4014.87179487 , 3868.71794872 , 4239.48717949 , 4194.35897436 , 4492.30769231 , 4492.82051282 , 1720.0 , 1693.0 , 6.848 , 0.0 , 0.0 , 0.0 , 0.0 , 

117.0 , 4420.0 , 4608.71794872 , 4463.07692308 , 4209.23076923 , 4576.41025641 , 4581.53846154 , 4553.33333333 , 4280.0 , 4015.8974359 , 3867.69230769 , 4241.02564103 , 4191.79487179 , 4493.84615385 , 4493.84615385 , 1720.0 , 1692.0 , 6.856 , 0.0 , 0.0 , 0.0 , 0.0 , 

118.0 , 4422.05128205 , 4612.30769231 , 4465.12820513 , 4206.66666667 , 4573.33333333 , 4579.48717949 , 4554.35897436 , 4280.51282051 , 4021.02564103 , 3867.17948718 , 4245.12820513 , 4195.38461538 , 4495.38461538 , 4496.41025641 , 1720.0 , 1693.0 , 6.864 , 0.0 , 0.0 , 0.0 , 0.0 , 

119.0 , 4422.05128205 , 4614.35897436 , 4466.66666667 , 4205.64102564 , 4567.69230769 , 4576.92307692 , 4554.35897436 , 4282.05128205 , 4020.0 , 3866.66666667 , 4243.07692308 , 4196.92307692 , 4494.87179487 , 4494.87179487 , 1720.0 , 1691.0 , 6.872 , 0.0 , 0.0 , 0.0 , 0.0 , 

120.0 , 4420.51282051 , 4612.30769231 , 4467.69230769 , 4208.71794872 , 4572.82051282 , 4580.0 , 4553.33333333 , 4288.20512821 , 4025.12820513 , 3870.25641026 , 4244.61538462 , 4197.43589744 , 4498.46153846 , 4493.84615385 , 1719.0 , 1693.0 , 6.88 , 0.0 , 0.0 , 0.0 , 0.0 , 

121.0 , 4421.02564103 , 4611.28205128 , 4466.15384615 , 4209.23076923 , 4575.8974359 , 4583.07692308 , 4552.82051282 , 4287.69230769 , 4024.1025641 , 3869.74358974 , 4245.64102564 , 4195.8974359 , 4496.92307692 , 4493.84615385 , 1721.0 , 1692.0 , 6.886 , 0.0 , 0.0 , 0.0 , 0.0 , 

122.0 , 4422.56410256 , 4611.79487179 , 4466.66666667 , 4207.69230769 , 4573.84615385 , 4580.0 , 4553.33333333 , 4292.30769231 , 4025.12820513 , 3872.82051282 , 4247.17948718 , 4203.58974359 , 4499.48717949 , 4501.02564103 , 1719.0 , 1692.0 , 6.894 , 0.0 , 0.0 , 0.0 , 0.0 , 

123.0 , 4422.05128205 , 4612.82051282 , 4467.69230769 , 4207.17948718 , 4573.33333333 , 4577.94871795 , 4553.33333333 , 4295.38461538 , 4024.61538462 , 3871.79487179 , 4246.15384615 , 4205.64102564 , 4503.07692308 , 4503.07692308 , 1720.0 , 1693.0 , 6.902 , 0.0 , 0.0 , 0.0 , 0.0 , 

124.0 , 4422.56410256 , 4610.76923077 , 4467.69230769 , 4208.20512821 , 4574.87179487 , 4580.51282051 , 4552.30769231 , 4291.28205128 , 4023.58974359 , 3867.69230769 , 4245.64102564 , 4200.51282051 , 4501.02564103 , 4496.92307692 , 1720.0 , 1693.0 , 6.911 , 0.0 , 0.0 , 0.0 , 0.0 , 

125.0 , 4424.1025641 , 4609.74358974 , 4466.66666667 , 4210.76923077 , 4574.87179487 , 4583.58974359 , 4551.79487179 , 4287.17948718 , 4018.97435897 , 3867.17948718 , 4243.58974359 , 4197.94871795 , 4495.38461538 , 4495.8974359 , 1720.0 , 1692.0 , 6.919 , 0.0 , 0.0 , 0.0 , 0.0 , 

126.0 , 4422.56410256 , 4610.25641026 , 4465.64102564 , 4209.74358974 , 4574.35897436 , 4581.53846154 , 4551.79487179 , 4286.15384615 , 4015.38461538 , 3868.20512821 , 4241.53846154 , 4197.43589744 , 4495.38461538 , 4497.43589744 , 1720.0 , 1693.0 , 6.927 , 0.0 , 0.0 , 0.0 , 0.0 , 

127.0 , 4420.51282051 , 4611.28205128 , 4465.12820513 , 4206.66666667 , 4575.8974359 , 4577.94871795 , 4552.30769231 , 4283.58974359 , 4016.41025641 , 3867.69230769 , 4239.48717949 , 4194.87179487 , 4496.41025641 , 4495.38461538 , 1720.0 , 1693.0 , 6.934 , 0.0 , 0.0 , 0.0 , 0.0 , 

128.0 , 4420.0 , 4612.30769231 , 4465.12820513 , 4206.66666667 , 4573.84615385 , 4577.94871795 , 4552.82051282 , 4280.51282051 , 4016.41025641 , 3865.64102564 , 4237.43589744 , 4194.35897436 , 4491.79487179 , 4494.87179487 , 1720.0 , 1692.0 , 6.942 , 0.0 , 0.0 , 0.0 , 0.0 , 

0.0 , 4421.53846154 , 4612.82051282 , 4464.61538462 , 4206.66666667 , 4572.30769231 , 4578.97435897 , 4552.30769231 , 4281.02564103 , 4014.87179487 , 3867.69230769 , 4238.97435897 , 4195.8974359 , 4489.74358974 , 4495.8974359 , 1719.0 , 1693.0 , 6.95 , 0.0 , 0.0 , 0.0 , 0.0 , 

1.0 , 4422.56410256 , 4612.30769231 , 4463.58974359 , 4205.64102564 , 4574.35897436 , 4578.97435897 , 4552.30769231 , 4274.35897436 , 4010.25641026 , 3868.71794872 , 4238.46153846 , 4192.30769231 , 4489.23076923 , 4489.23076923 , 1721.0 , 1692.0 , 6.958 , 0.0 , 0.0 , 0.0 , 0.0 , 

2.0 , 4421.53846154 , 4610.76923077 , 4463.07692308 , 4206.15384615 , 4576.41025641 , 4578.97435897 , 4553.33333333 , 4273.33333333 , 4010.25641026 , 3866.15384615 , 4237.94871795 , 4191.79487179 , 4489.23076923 , 4488.71794872 , 1719.0 , 1693.0 , 6.966 , 0.0 , 0.0 , 0.0 , 0.0 , 

3.0 , 4419.48717949 , 4610.25641026 , 4464.1025641 , 4207.69230769 , 4574.35897436 , 4578.97435897 , 4553.33333333 , 4279.48717949 , 4014.87179487 , 3865.12820513 , 4240.0 , 4193.84615385 , 4492.30769231 , 4494.87179487 , 1720.0 , 1693.0 , 6.974 , 0.0 , 0.0 , 0.0 , 0.0 , 

4.0 , 4420.0 , 4609.74358974 , 4465.64102564 , 4208.71794872 , 4573.33333333 , 4578.46153846 , 4552.82051282 , 4284.61538462 , 4021.53846154 , 3867.69230769 , 4241.53846154 , 4196.41025641 , 4494.87179487 , 4494.87179487 , 1720.0 , 1693.0 , 6.981 , 0.0 , 0.0 , 0.0 , 0.0 , 

5.0 , 4422.56410256 , 4610.25641026 , 4466.15384615 , 4209.23076923 , 4574.87179487 , 4580.0 , 4551.28205128 , 4280.0 , 4019.48717949 , 3868.20512821 , 4243.07692308 , 4194.35897436 , 4492.82051282 , 4490.76923077 , 1720.0 , 1693.0 , 6.988 , 0.0 , 0.0 , 0.0 , 0.0 , 

6.0 , 4423.07692308 , 4609.74358974 , 4467.69230769 , 4208.71794872 , 4575.38461538 , 4580.0 , 4551.79487179 , 4282.05128205 , 4018.46153846 , 3870.25641026 , 4247.17948718 , 4197.43589744 , 4496.41025641 , 4496.41025641 , 1720.0 , 1692.0 , 6.996 , 0.0 , 0.0 , 0.0 , 0.0 , 

7.0 , 4421.02564103 , 4610.25641026 , 4465.64102564 , 4207.69230769 , 4574.35897436 , 4580.0 , 4553.33333333 , 4283.58974359 , 4018.46153846 , 3869.23076923 , 4244.61538462 , 4198.97435897 , 4497.94871795 , 4498.46153846 , 1720.0 , 1693.0 , 7.004 , 0.0 , 0.0 , 0.0 , 0.0 , 

8.0 , 4422.05128205 , 4611.28205128 , 4465.12820513 , 4208.20512821 , 4573.84615385 , 4581.02564103 , 4553.33333333 , 4287.17948718 , 4024.1025641 , 3869.23076923 , 4245.12820513 , 4203.07692308 , 4500.51282051 , 4497.94871795 , 1720.0 , 1693.0 , 7.012 , 0.0 , 0.0 , 0.0 , 0.0 , 

9.0 , 4423.07692308 , 4611.79487179 , 4468.20512821 , 4209.74358974 , 4575.8974359 , 4580.51282051 , 4553.84615385 , 4290.25641026 , 4023.07692308 , 3868.71794872 , 4245.12820513 , 4201.53846154 , 4500.0 , 4495.8974359 , 1720.0 , 1692.0 , 7.019 , 0.0 , 0.0 , 0.0 , 0.0 , 

10.0 , 4422.05128205 , 4614.35897436 , 4470.25641026 , 4209.74358974 , 4575.8974359 , 4581.02564103 , 4554.35897436 , 4296.41025641 , 4025.12820513 , 3871.79487179 , 4244.61538462 , 4201.53846154 , 4501.02564103 , 4495.8974359 , 1720.0 , 1692.0 , 7.028 , 0.0 , 0.0 , 0.0 , 0.0 , 

11.0 , 4419.48717949 , 4613.84615385 , 4465.64102564 , 4207.69230769 , 4573.84615385 , 4581.02564103 , 4553.33333333 , 4293.33333333 , 4026.15384615 , 3869.74358974 , 4240.51282051 , 4198.97435897 , 4500.51282051 , 4497.94871795 , 1720.0 , 1692.0 , 7.036 , 0.0 , 0.0 , 0.0 , 0.0 , 

12.0 , 4417.94871795 , 4610.76923077 , 4465.64102564 , 4206.15384615 , 4572.82051282 , 4578.97435897 , 4551.79487179 , 4287.17948718 , 4021.02564103 , 3869.23076923 , 4241.02564103 , 4197.43589744 , 4498.97435897 , 4499.48717949 , 1719.0 , 1692.0 , 7.044 , 0.0 , 0.0 , 0.0 , 0.0 , 

13.0 , 4420.51282051 , 4612.82051282 , 4468.20512821 , 4207.17948718 , 4575.38461538 , 4579.48717949 , 4553.33333333 , 4287.69230769 , 4018.97435897 , 3869.74358974 , 4242.56410256 , 4196.92307692 , 4498.46153846 , 4495.8974359 , 1720.0 , 1693.0 , 7.052 , 0.0 , 0.0 , 0.0 , 0.0 , 

14.0 , 4422.05128205 , 4613.33333333 , 4466.15384615 , 4207.17948718 , 4574.87179487 , 4579.48717949 , 4554.35897436 , 4285.64102564 , 4020.51282051 , 3867.17948718 , 4239.48717949 , 4194.87179487 , 4497.43589744 , 4493.33333333 , 1720.0 , 1692.0 , 7.06 , 0.0 , 0.0 , 0.0 , 0.0 , 

15.0 , 4420.0 , 4611.28205128 , 4464.1025641 , 4206.66666667 , 4569.23076923 , 4578.46153846 , 4552.82051282 , 4281.53846154 , 4016.92307692 , 3864.61538462 , 4237.43589744 , 4193.84615385 , 4494.35897436 , 4495.38461538 , 1720.0 , 1692.0 , 7.067 , 0.0 , 0.0 , 0.0 , 0.0 , 

16.0 , 4420.0 , 4610.76923077 , 4464.1025641 , 4206.66666667 , 4570.25641026 , 4579.48717949 , 4552.30769231 , 4280.51282051 , 4011.79487179 , 3865.64102564 , 4239.48717949 , 4193.84615385 , 4489.23076923 , 4493.84615385 , 1720.0 , 1693.0 , 7.075 , 0.0 , 0.0 , 0.0 , 0.0 , 

17.0 , 4423.07692308 , 4610.25641026 , 4463.58974359 , 4207.69230769 , 4575.38461538 , 4580.0 , 4552.30769231 , 4279.48717949 , 4014.35897436 , 3866.15384615 , 4238.46153846 , 4193.33333333 , 4488.71794872 , 4490.76923077 , 1720.0 , 1693.0 , 7.083 , 0.0 , 0.0 , 0.0 , 0.0 , 

18.0 , 4422.56410256 , 4608.71794872 , 4464.61538462 , 4208.71794872 , 4573.33333333 , 4579.48717949 , 4552.82051282 , 4273.33333333 , 4012.82051282 , 3863.07692308 , 4235.38461538 , 4189.23076923 , 4488.71794872 , 4489.74358974 , 1720.0 , 1692.0 , 7.091 , 0.0 , 0.0 , 0.0 , 0.0 , 

19.0 , 4419.48717949 , 4610.25641026 , 4465.64102564 , 4209.74358974 , 4572.30769231 , 4581.53846154 , 4553.33333333 , 4275.38461538 , 4012.30769231 , 3866.15384615 , 4240.0 , 4190.76923077 , 4488.71794872 , 4492.30769231 , 1719.0 , 1693.0 , 7.098 , 0.0 , 0.0 , 0.0 , 0.0 , 

20.0 , 4419.48717949 , 4610.25641026 , 4463.58974359 , 4208.20512821 , 4575.8974359 , 4583.07692308 , 4553.84615385 , 4280.51282051 , 4017.43589744 , 3869.74358974 , 4243.07692308 , 4192.82051282 , 4489.74358974 , 4495.38461538 , 1720.0 , 1692.0 , 7.105 , 0.0 , 0.0 , 0.0 , 0.0 , 

21.0 , 4422.56410256 , 4608.20512821 , 4465.64102564 , 4205.64102564 , 4575.8974359 , 4581.53846154 , 4553.84615385 , 4284.61538462 , 4022.56410256 , 3869.23076923 , 4241.53846154 , 4195.8974359 , 4495.8974359 , 4494.87179487 , 1719.0 , 1692.0 , 7.113 , 0.0 , 0.0 , 0.0 , 0.0 , 

22.0 , 4423.07692308 , 4610.25641026 , 4467.69230769 , 4207.17948718 , 4573.84615385 , 4579.48717949 , 4554.35897436 , 4281.53846154 , 4020.51282051 , 3865.64102564 , 4241.02564103 , 4195.8974359 , 4496.92307692 , 4493.84615385 , 1720.0 , 1693.0 , 7.122 , 0.0 , 0.0 , 0.0 , 0.0 , 

23.0 , 4421.53846154 , 4612.82051282 , 4468.20512821 , 4208.20512821 , 4575.8974359 , 4578.46153846 , 4555.38461538 , 4285.64102564 , 4023.58974359 , 3870.25641026 , 4246.15384615 , 4198.97435897 , 4497.43589744 , 4499.48717949 , 1720.0 , 1693.0 , 7.13 , 0.0 , 0.0 , 0.0 , 0.0 , 

24.0 , 4423.58974359 , 4612.82051282 , 4466.15384615 , 4207.17948718 , 4574.87179487 , 4581.02564103 , 4553.84615385 , 4286.66666667 , 4023.07692308 , 3872.30769231 , 4245.64102564 , 4198.97435897 , 4497.43589744 , 4498.97435897 , 1720.0 , 1692.0 , 7.138 , 0.0 , 0.0 , 0.0 , 0.0 , 

25.0 , 4425.12820513 , 4611.79487179 , 4466.15384615 , 4207.69230769 , 4573.84615385 , 4581.53846154 , 4552.30769231 , 4290.76923077 , 4024.61538462 , 3872.82051282 , 4247.17948718 , 4201.53846154 , 4503.07692308 , 4497.94871795 , 1720.0 , 1692.0 , 7.146 , 0.0 , 0.0 , 0.0 , 0.0 , 

26.0 , 4422.05128205 , 4612.82051282 , 4466.66666667 , 4208.20512821 , 4575.38461538 , 4580.51282051 , 4553.33333333 , 4293.84615385 , 4024.61538462 , 3871.28205128 , 4245.64102564 , 4201.53846154 , 4503.58974359 , 4498.97435897 , 1720.0 , 1693.0 , 7.153 , 0.0 , 0.0 , 0.0 , 0.0 , 

27.0 , 4418.97435897 , 4612.30769231 , 4464.61538462 , 4208.20512821 , 4575.38461538 , 4578.46153846 , 4554.87179487 , 4295.38461538 , 4024.1025641 , 3871.79487179 , 4243.58974359 , 4203.58974359 , 4498.97435897 , 4501.53846154 , 1720.0 , 1692.0 , 7.161 , 0.0 , 0.0 , 0.0 , 0.0 , 

28.0 , 4420.51282051 , 4609.23076923 , 4463.58974359 , 4209.23076923 , 4572.82051282 , 4579.48717949 , 4554.35897436 , 4292.30769231 , 4020.51282051 , 3869.23076923 , 4240.0 , 4198.97435897 , 4496.41025641 , 4497.94871795 , 1720.0 , 1692.0 , 7.169 , 0.0 , 0.0 , 0.0 , 0.0 , 

29.0 , 4422.05128205 , 4608.71794872 , 4465.64102564 , 4208.20512821 , 4572.30769231 , 4580.51282051 , 4552.30769231 , 4285.64102564 , 4018.97435897 , 3866.15384615 , 4241.53846154 , 4193.84615385 , 4496.41025641 , 4493.33333333 , 1720.0 , 1692.0 , 7.177 , 0.0 , 0.0 , 0.0 , 0.0 , 

30.0 , 4421.02564103 , 4612.30769231 , 4464.1025641 , 4206.66666667 , 4575.8974359 , 4578.97435897 , 4551.79487179 , 4285.12820513 , 4017.94871795 , 3864.61538462 , 4243.58974359 , 4195.8974359 , 4493.33333333 , 4492.82051282 , 1719.0 , 1693.0 , 7.186 , 0.0 , 0.0 , 0.0 , 0.0 , 

31.0 , 4420.51282051 , 4614.35897436 , 4462.56410256 , 4208.20512821 , 4576.41025641 , 4576.92307692 , 4551.79487179 , 4283.58974359 , 4012.82051282 , 3864.61538462 , 4240.0 , 4196.92307692 , 4490.25641026 , 4494.87179487 , 1721.0 , 1692.0 , 7.193 , 0.0 , 0.0 , 0.0 , 0.0 , 

32.0 , 4423.07692308 , 4612.30769231 , 4465.12820513 , 4207.69230769 , 4571.79487179 , 4578.46153846 , 4550.76923077 , 4279.48717949 , 4011.28205128 , 3865.64102564 , 4238.97435897 , 4193.33333333 , 4491.79487179 , 4494.35897436 , 1719.0 , 1693.0 , 7.201 , 0.0 , 0.0 , 0.0 , 0.0 , 

33.0 , 4424.61538462 , 4610.76923077 , 4466.66666667 , 4207.17948718 , 4570.76923077 , 4579.48717949 , 4551.79487179 , 4274.87179487 , 4011.79487179 , 3865.64102564 , 4237.94871795 , 4189.74358974 , 4491.28205128 , 4492.82051282 , 1720.0 , 1693.0 , 7.209 , 0.0 , 0.0 , 0.0 , 0.0 , 

34.0 , 4421.02564103 , 4609.74358974 , 4464.61538462 , 4209.23076923 , 4573.84615385 , 4577.43589744 , 4553.84615385 , 4276.41025641 , 4013.33333333 , 3864.1025641 , 4237.43589744 , 4191.79487179 , 4490.76923077 , 4491.79487179 , 1720.0 , 1692.0 , 7.217 , 0.0 , 0.0 , 0.0 , 0.0 , 

35.0 , 4418.97435897 , 4610.25641026 , 4464.61538462 , 4207.69230769 , 4574.87179487 , 4577.94871795 , 4552.30769231 , 4276.92307692 , 4011.28205128 , 3865.64102564 , 4237.43589744 , 4192.30769231 , 4490.76923077 , 4490.25641026 , 1720.0 , 1693.0 , 7.225 , 0.0 , 0.0 , 0.0 , 0.0 , 

36.0 , 4420.0 , 4611.79487179 , 4467.69230769 , 4207.17948718 , 4572.82051282 , 4580.0 , 4552.30769231 , 4279.48717949 , 4013.84615385 , 3868.71794872 , 4239.48717949 , 4193.33333333 , 4489.23076923 , 4490.76923077 , 1720.0 , 1692.0 , 7.233 , 0.0 , 0.0 , 0.0 , 0.0 , 

37.0 , 4420.0 , 4611.79487179 , 4466.66666667 , 4209.23076923 , 4572.82051282 , 4579.48717949 , 4555.38461538 , 4282.05128205 , 4018.46153846 , 3866.15384615 , 4238.46153846 , 4192.82051282 , 4489.74358974 , 4491.79487179 , 1719.0 , 1693.0 , 7.24 , 0.0 , 0.0 , 0.0 , 0.0 , 

38.0 , 4420.51282051 , 4611.28205128 , 4465.64102564 , 4209.23076923 , 4573.84615385 , 4580.51282051 , 4554.35897436 , 4286.66666667 , 4024.1025641 , 3867.17948718 , 4243.58974359 , 4196.41025641 , 4495.38461538 , 4496.92307692 , 1720.0 , 1692.0 , 7.248 , 0.0 , 0.0 , 0.0 , 0.0 , 

39.0 , 4421.53846154 , 4611.28205128 , 4465.12820513 , 4206.66666667 , 4573.33333333 , 4583.07692308 , 4550.76923077 , 4285.12820513 , 4019.48717949 , 3867.17948718 , 4246.66666667 , 4196.41025641 , 4495.38461538 , 4498.97435897 , 1720.0 , 1692.0 , 7.256 , 0.0 , 0.0 , 0.0 , 0.0 , 

40.0 , 4423.07692308 , 4608.71794872 , 4466.66666667 , 4206.15384615 , 4574.35897436 , 4583.07692308 , 4552.30769231 , 4290.25641026 , 4019.48717949 , 3868.71794872 , 4246.15384615 , 4198.97435897 , 4496.92307692 , 4500.0 , 1720.0 , 1692.0 , 7.264 , 0.0 , 0.0 , 0.0 , 0.0 , 

41.0 , 4423.07692308 , 4610.25641026 , 4464.1025641 , 4206.66666667 , 4574.35897436 , 4581.53846154 , 4555.38461538 , 4292.30769231 , 4022.05128205 , 3868.71794872 , 4244.61538462 , 4200.0 , 4499.48717949 , 4498.97435897 , 1720.0 , 1693.0 , 7.271 , 0.0 , 0.0 , 0.0 , 0.0 , 

42.0 , 4424.1025641 , 4614.87179487 , 4464.61538462 , 4207.17948718 , 4574.35897436 , 4580.51282051 , 4553.84615385 , 4294.35897436 , 4025.12820513 , 3870.25641026 , 4249.74358974 , 4202.56410256 , 4503.58974359 , 4500.0 , 1721.0 , 1692.0 , 7.279 , 0.0 , 0.0 , 0.0 , 0.0 , 

43.0 , 4423.07692308 , 4614.87179487 , 4466.66666667 , 4208.20512821 , 4576.41025641 , 4580.51282051 , 4551.79487179 , 4290.76923077 , 4023.58974359 , 3869.74358974 , 4247.17948718 , 4198.97435897 , 4501.53846154 , 4497.43589744 , 1719.0 , 1692.0 , 7.287 , 0.0 , 0.0 , 0.0 , 0.0 , 

44.0 , 4421.02564103 , 4610.76923077 , 4466.66666667 , 4206.15384615 , 4576.41025641 , 4580.0 , 4552.82051282 , 4289.23076923 , 4023.58974359 , 3870.25641026 , 4242.05128205 , 4197.43589744 , 4498.46153846 , 4495.8974359 , 1720.0 , 1693.0 , 7.295 , 0.0 , 0.0 , 0.0 , 0.0 , 

45.0 , 4422.05128205 , 4611.28205128 , 4466.15384615 , 4206.66666667 , 4573.33333333 , 4580.51282051 , 4553.33333333 , 4289.23076923 , 4020.51282051 , 3868.71794872 , 4242.05128205 , 4198.97435897 , 4497.94871795 , 4496.92307692 , 1720.0 , 1692.0 , 7.303 , 0.0 , 0.0 , 0.0 , 0.0 , 

46.0 , 4423.07692308 , 4611.79487179 , 4466.66666667 , 4208.71794872 , 4572.30769231 , 4578.97435897 , 4551.79487179 , 4283.58974359 , 4015.8974359 , 3866.66666667 , 4241.02564103 , 4196.92307692 , 4495.38461538 , 4495.38461538 , 1719.0 , 1693.0 , 7.311 , 0.0 , 0.0 , 0.0 , 0.0 , 

47.0 , 4421.53846154 , 4610.76923077 , 4465.64102564 , 4207.69230769 , 4574.87179487 , 4577.43589744 , 4553.33333333 , 4279.48717949 , 4015.38461538 , 3867.17948718 , 4238.97435897 , 4194.87179487 , 4492.30769231 , 4493.84615385 , 1720.0 , 1692.0 , 7.319 , 0.0 , 0.0 , 0.0 , 0.0 , 

48.0 , 4421.53846154 , 4611.28205128 , 4462.56410256 , 4206.66666667 , 4574.87179487 , 4578.46153846 , 4554.87179487 , 4281.02564103 , 4016.92307692 , 3865.12820513 , 4238.97435897 , 4194.87179487 , 4492.30769231 , 4495.38461538 , 1719.0 , 1693.0 , 7.326 , 0.0 , 0.0 , 0.0 , 0.0 , 

49.0 , 4423.58974359 , 4612.82051282 , 4463.07692308 , 4208.20512821 , 4574.87179487 , 4579.48717949 , 4552.30769231 , 4282.56410256 , 4015.38461538 , 3864.1025641 , 4240.0 , 4192.30769231 , 4493.33333333 , 4495.38461538 , 1720.0 , 1692.0 , 7.334 , 0.0 , 0.0 , 0.0 , 0.0 , 

50.0 , 4422.56410256 , 4610.25641026 , 4464.1025641 , 4207.69230769 , 4575.38461538 , 4579.48717949 , 4551.28205128 , 4276.41025641 , 4009.74358974 , 3864.61538462 , 4235.8974359 , 4188.71794872 , 4489.74358974 , 4492.30769231 , 1720.0 , 1693.0 , 7.342 , 0.0 , 0.0 , 0.0 , 0.0 , 

51.0 , 4421.53846154 , 4608.20512821 , 4465.64102564 , 4207.69230769 , 4575.38461538 , 4578.97435897 , 4552.30769231 , 4274.87179487 , 4009.74358974 , 3865.64102564 , 4235.8974359 , 4191.28205128 , 4490.25641026 , 4491.28205128 , 1720.0 , 1692.0 , 7.35 , 0.0 , 0.0 , 0.0 , 0.0 , 

52.0 , 4422.05128205 , 4612.30769231 , 4466.66666667 , 4209.74358974 , 4575.38461538 , 4578.46153846 , 4552.82051282 , 4277.94871795 , 4013.84615385 , 3865.64102564 , 4240.51282051 , 4192.30769231 , 4492.82051282 , 4494.87179487 , 1720.0 , 1693.0 , 7.358 , 0.0 , 0.0 , 0.0 , 0.0 , 

53.0 , 4421.02564103 , 4613.84615385 , 4466.66666667 , 4207.69230769 , 4573.84615385 , 4578.46153846 , 4552.82051282 , 4283.07692308 , 4017.94871795 , 3868.20512821 , 4243.58974359 , 4194.35897436 , 4494.87179487 , 4497.43589744 , 1720.0 , 1692.0 , 7.365 , 0.0 , 0.0 , 0.0 , 0.0 , 

54.0 , 4421.02564103 , 4609.74358974 , 4465.64102564 , 4206.15384615 , 4573.33333333 , 4580.0 , 4553.84615385 , 4281.53846154 , 4016.92307692 , 3868.71794872 , 4239.48717949 , 4192.82051282 , 4493.84615385 , 4494.35897436 , 1719.0 , 1693.0 , 7.373 , 0.0 , 0.0 , 0.0 , 0.0 , 

55.0 , 4421.53846154 , 4610.76923077 , 4464.61538462 , 4207.69230769 , 4573.84615385 , 4580.0 , 4552.82051282 , 4285.64102564 , 4021.02564103 , 3868.71794872 , 4242.56410256 , 4197.94871795 , 4495.8974359 , 4495.38461538 , 1721.0 , 1693.0 , 7.381 , 0.0 , 0.0 , 0.0 , 0.0 , 

56.0 , 4421.02564103 , 4614.35897436 , 4464.1025641 , 4208.20512821 , 4574.35897436 , 4578.46153846 , 4552.82051282 , 4286.66666667 , 4021.02564103 , 3864.61538462 , 4245.64102564 , 4199.48717949 , 4496.92307692 , 4497.94871795 , 1719.0 , 1692.0 , 7.389 , 0.0 , 0.0 , 0.0 , 0.0 , 

57.0 , 4422.56410256 , 4609.74358974 , 4468.20512821 , 4206.15384615 , 4571.79487179 , 4579.48717949 , 4553.84615385 , 4289.23076923 , 4023.07692308 , 3869.23076923 , 4246.66666667 , 4201.53846154 , 4501.53846154 , 4502.05128205 , 1720.0 , 1693.0 , 7.397 , 0.0 , 0.0 , 0.0 , 0.0 , 

58.0 , 4422.05128205 , 4608.71794872 , 4469.23076923 , 4206.15384615 , 4571.79487179 , 4580.51282051 , 4553.33333333 , 4291.28205128 , 4022.56410256 , 3871.79487179 , 4244.1025641 , 4201.53846154 , 4501.53846154 , 4502.56410256 , 1721.0 , 1692.0 , 7.405 , 0.0 , 0.0 , 0.0 , 0.0 , 

59.0 , 4421.02564103 , 4612.82051282 , 4469.23076923 , 4206.15384615 , 4572.30769231 , 4580.51282051 , 4552.30769231 , 4294.87179487 , 4024.1025641 , 3868.20512821 , 4246.15384615 , 4203.07692308 , 4501.53846154 , 4503.07692308 , 1719.0 , 1693.0 , 7.412 , 0.0 , 0.0 , 0.0 , 0.0 , 

60.0 , 4423.58974359 , 4611.79487179 , 4468.71794872 , 4207.17948718 , 4572.82051282 , 4581.53846154 , 4553.33333333 , 4291.28205128 , 4020.51282051 , 3864.61538462 , 4244.61538462 , 4198.46153846 , 4500.0 , 4499.48717949 , 1720.0 , 1693.0 , 7.42 , 0.0 , 0.0 , 0.0 , 0.0 , 

61.0 , 4422.05128205 , 4610.76923077 , 4466.15384615 , 4209.23076923 , 4572.82051282 , 4582.05128205 , 4553.33333333 , 4286.15384615 , 4016.41025641 , 3867.69230769 , 4241.53846154 , 4196.41025641 , 4497.43589744 , 4495.8974359 , 1720.0 , 1692.0 , 7.428 , 0.0 , 0.0 , 0.0 , 0.0 , 

62.0 , 4420.0 , 4614.87179487 , 4464.1025641 , 4208.20512821 , 4574.35897436 , 4581.53846154 , 4552.30769231 , 4287.69230769 , 4017.94871795 , 3869.23076923 , 4242.05128205 , 4198.97435897 , 4497.43589744 , 4495.8974359 , 1720.0 , 1693.0 , 7.436 , 0.0 , 0.0 , 0.0 , 0.0 , 

63.0 , 4422.05128205 , 4614.35897436 , 4465.12820513 , 4206.15384615 , 4575.8974359 , 4578.97435897 , 4552.30769231 , 4287.17948718 , 4017.43589744 , 3868.71794872 , 4241.53846154 , 4196.92307692 , 4496.92307692 , 4495.8974359 , 1720.0 , 1692.0 , 7.444 , 0.0 , 0.0 , 0.0 , 0.0 , 

64.0 , 4422.05128205 , 4608.71794872 , 4466.66666667 , 4207.69230769 , 4572.30769231 , 4577.94871795 , 4553.33333333 , 4283.58974359 , 4014.87179487 , 3868.71794872 , 4240.0 , 4194.35897436 , 4494.35897436 , 4494.35897436 , 1720.0 , 1694.0 , 7.452 , 0.0 , 0.0 , 0.0 , 0.0 , 

65.0 , 4420.0 , 4608.71794872 , 4464.61538462 , 4209.23076923 , 4570.76923077 , 4577.43589744 , 4552.82051282 , 4278.46153846 , 4013.33333333 , 3864.61538462 , 4239.48717949 , 4194.87179487 , 4490.76923077 , 4489.74358974 , 1719.0 , 1692.0 , 7.459 , 0.0 , 0.0 , 0.0 , 0.0 , 

66.0 , 4419.48717949 , 4611.79487179 , 4464.61538462 , 4207.17948718 , 4572.30769231 , 4578.46153846 , 4552.82051282 , 4276.92307692 , 4012.30769231 , 3861.02564103 , 4240.0 , 4192.82051282 , 4489.23076923 , 4489.23076923 , 1720.0 , 1693.0 , 7.467 , 0.0 , 0.0 , 0.0 , 0.0 , 

67.0 , 4418.97435897 , 4610.25641026 , 4466.66666667 , 4208.20512821 , 4571.79487179 , 4579.48717949 , 4553.84615385 , 4273.84615385 , 4009.23076923 , 3863.58974359 , 4240.0 , 4188.20512821 , 4489.74358974 , 4493.33333333 , 1719.0 , 1692.0 , 7.475 , 0.0 , 0.0 , 0.0 , 0.0 , 

68.0 , 4420.51282051 , 4608.20512821 , 4465.12820513 , 4210.25641026 , 4570.76923077 , 4580.0 , 4552.82051282 , 4274.35897436 , 4012.30769231 , 3866.15384615 , 4242.05128205 , 4190.76923077 , 4493.33333333 , 4494.87179487 , 1720.0 , 1692.0 , 7.483 , 0.0 , 0.0 , 0.0 , 0.0 , 

69.0 , 4421.53846154 , 4609.74358974 , 4464.1025641 , 4207.69230769 , 4572.30769231 , 4580.51282051 , 4553.84615385 , 4278.97435897 , 4014.87179487 , 3865.64102564 , 4241.53846154 , 4193.84615385 , 4495.38461538 , 4493.84615385 , 1720.0 , 1693.0 , 7.491 , 0.0 , 0.0 , 0.0 , 0.0 , 

70.0 , 4420.51282051 , 4612.30769231 , 4465.64102564 , 4207.69230769 , 4572.30769231 , 4580.51282051 , 4554.35897436 , 4285.64102564 , 4016.41025641 , 3869.23076923 , 4241.53846154 , 4195.38461538 , 4497.43589744 , 4495.8974359 , 1720.0 , 1692.0 , 7.498 , 0.0 , 0.0 , 0.0 , 0.0 , 

71.0 , 4420.0 , 4613.33333333 , 4464.61538462 , 4208.71794872 , 4571.28205128 , 4580.51282051 , 4551.79487179 , 4282.56410256 , 4015.8974359 , 3870.76923077 , 4241.53846154 , 4192.82051282 , 4494.35897436 , 4494.87179487 , 1719.0 , 1692.0 , 7.506 , 0.0 , 0.0 , 0.0 , 0.0 , 

72.0 , 4421.53846154 , 4612.82051282 , 4466.15384615 , 4207.69230769 , 4573.33333333 , 4580.51282051 , 4551.79487179 , 4286.15384615 , 4023.58974359 , 3871.79487179 , 4245.64102564 , 4197.94871795 , 4496.92307692 , 4497.43589744 , 1720.0 , 1693.0 , 7.513 , 0.0 , 0.0 , 0.0 , 0.0 , 

73.0 , 4422.05128205 , 4610.25641026 , 4468.71794872 , 4209.23076923 , 4573.33333333 , 4580.0 , 4553.84615385 , 4290.76923077 , 4025.12820513 , 3869.23076923 , 4242.05128205 , 4198.46153846 , 4501.02564103 , 4499.48717949 , 1719.0 , 1693.0 , 7.521 , 0.0 , 0.0 , 0.0 , 0.0 , 

74.0 , 4422.05128205 , 4607.69230769 , 4468.20512821 , 4209.74358974 , 4572.82051282 , 4579.48717949 , 4553.33333333 , 4294.87179487 , 4026.15384615 , 3870.76923077 , 4244.1025641 , 4203.58974359 , 4504.61538462 , 4502.56410256 , 1721.0 , 1693.0 , 7.529 , 0.0 , 0.0 , 0.0 , 0.0 , 

75.0 , 4422.56410256 , 4610.76923077 , 4464.61538462 , 4208.20512821 , 4575.38461538 , 4580.0 , 4552.82051282 , 4293.33333333 , 4024.61538462 , 3870.76923077 , 4245.12820513 , 4205.64102564 , 4501.53846154 , 4501.02564103 , 1719.0 , 1691.0 , 7.537 , 0.0 , 0.0 , 0.0 , 0.0 , 

76.0 , 4423.58974359 , 4612.82051282 , 4465.12820513 , 4208.20512821 , 4574.87179487 , 4581.02564103 , 4554.35897436 , 4291.79487179 , 4023.58974359 , 3870.25641026 , 4244.1025641 , 4201.53846154 , 4496.92307692 , 4500.0 , 1720.0 , 1694.0 , 7.544 , 0.0 , 0.0 , 0.0 , 0.0 , 

77.0 , 4423.58974359 , 4611.79487179 , 4465.64102564 , 4209.23076923 , 4569.74358974 , 4581.53846154 , 4554.35897436 , 4289.23076923 , 4021.53846154 , 3869.23076923 , 4243.58974359 , 4198.46153846 , 4496.92307692 , 4501.02564103 , 1721.0 , 1692.0 , 7.552 , 0.0 , 0.0 , 0.0 , 0.0 , 

78.0 , 4421.02564103 , 4611.79487179 , 4465.12820513 , 4208.20512821 , 4569.23076923 , 4581.02564103 , 4552.82051282 , 4287.17948718 , 4019.48717949 , 3868.71794872 , 4244.1025641 , 4197.94871795 , 4497.43589744 , 4496.92307692 , 1719.0 , 1693.0 , 7.56 , 0.0 , 0.0 , 0.0 , 0.0 , 

79.0 , 4419.48717949 , 4612.82051282 , 4465.12820513 , 4209.23076923 , 4574.35897436 , 4580.51282051 , 4552.30769231 , 4286.66666667 , 4018.97435897 , 3867.69230769 , 4243.07692308 , 4194.35897436 , 4495.38461538 , 4492.82051282 , 1720.0 , 1693.0 , 7.568 , 0.0 , 0.0 , 0.0 , 0.0 , 

80.0 , 4420.51282051 , 4610.76923077 , 4465.64102564 , 4208.20512821 , 4574.35897436 , 4576.41025641 , 4551.79487179 , 4282.56410256 , 4016.41025641 , 3865.64102564 , 4239.48717949 , 4192.82051282 , 4492.30769231 , 4493.84615385 , 1720.0 , 1692.0 , 7.577 , 0.0 , 0.0 , 0.0 , 0.0 , 

81.0 , 4421.02564103 , 4610.25641026 , 4464.61538462 , 4206.15384615 , 4570.76923077 , 4575.38461538 , 4551.79487179 , 4280.0 , 4014.87179487 , 3864.1025641 , 4237.43589744 , 4193.84615385 , 4492.30769231 , 4496.41025641 , 1720.0 , 1692.0 , 7.584 , 0.0 , 0.0 , 0.0 , 0.0 , 

82.0 , 4420.0 , 4611.28205128 , 4462.56410256 , 4207.17948718 , 4571.28205128 , 4578.97435897 , 4553.33333333 , 4278.46153846 , 4014.35897436 , 3863.07692308 , 4236.92307692 , 4188.71794872 , 4490.76923077 , 4493.33333333 , 1720.0 , 1693.0 , 7.593 , 0.0 , 0.0 , 0.0 , 0.0 , 

83.0 , 4420.0 , 4609.74358974 , 4463.07692308 , 4207.17948718 , 4573.33333333 , 4580.0 , 4553.84615385 , 4277.43589744 , 4014.87179487 , 3865.12820513 , 4239.48717949 , 4187.69230769 , 4491.28205128 , 4493.84615385 , 1720.0 , 1693.0 , 7.6 , 0.0 , 0.0 , 0.0 , 0.0 , 

84.0 , 4420.0 , 4610.25641026 , 4464.61538462 , 4206.66666667 , 4573.33333333 , 4580.0 , 4552.82051282 , 4278.46153846 , 4014.35897436 , 3867.17948718 , 4241.02564103 , 4194.87179487 , 4494.35897436 , 4495.8974359 , 1719.0 , 1692.0 , 7.608 , 0.0 , 0.0 , 0.0 , 0.0 , 

85.0 , 4420.51282051 , 4612.30769231 , 4465.12820513 , 4207.69230769 , 4573.84615385 , 4580.51282051 , 4552.30769231 , 4284.1025641 , 4016.92307692 , 3868.20512821 , 4244.1025641 , 4197.94871795 , 4495.8974359 , 4494.87179487 , 1720.0 , 1693.0 , 7.616 , 0.0 , 0.0 , 0.0 , 0.0 , 

86.0 , 4419.48717949 , 4611.79487179 , 4467.17948718 , 4208.20512821 , 4573.84615385 , 4578.97435897 , 4553.84615385 , 4282.05128205 , 4015.8974359 , 3867.17948718 , 4243.58974359 , 4194.87179487 , 4493.33333333 , 4492.30769231 , 1720.0 , 1692.0 , 7.624 , 0.0 , 0.0 , 0.0 , 0.0 , 

87.0 , 4421.02564103 , 4610.76923077 , 4469.23076923 , 4207.17948718 , 4572.82051282 , 4577.43589744 , 4555.38461538 , 4284.61538462 , 4020.0 , 3869.74358974 , 4243.58974359 , 4198.46153846 , 4495.8974359 , 4494.35897436 , 1720.0 , 1693.0 , 7.63 , 0.0 , 0.0 , 0.0 , 0.0 , 

88.0 , 4423.58974359 , 4612.82051282 , 4466.66666667 , 4207.69230769 , 4572.30769231 , 4580.51282051 , 4555.38461538 , 4285.64102564 , 4020.51282051 , 3869.74358974 , 4240.0 , 4196.41025641 , 4496.92307692 , 4496.41025641 , 1721.0 , 1692.0 , 7.638 , 0.0 , 0.0 , 0.0 , 0.0 , 

89.0 , 4423.07692308 , 4612.82051282 , 4466.66666667 , 4208.20512821 , 4574.35897436 , 4582.56410256 , 4552.30769231 , 4290.25641026 , 4022.56410256 , 3872.82051282 , 4242.05128205 , 4198.97435897 , 4501.02564103 , 4500.0 , 1719.0 , 1692.0 , 7.646 , 0.0 , 0.0 , 0.0 , 0.0 , 

90.0 , 4422.56410256 , 4610.25641026 , 4466.15384615 , 4209.74358974 , 4575.38461538 , 4583.58974359 , 4549.74358974 , 4292.30769231 , 4024.1025641 , 3871.79487179 , 4242.56410256 , 4201.02564103 , 4501.02564103 , 4497.94871795 , 1721.0 , 1692.0 , 7.654 , 0.0 , 0.0 , 0.0 , 0.0 , 

91.0 , 4422.56410256 , 4610.25641026 , 4466.15384615 , 4210.76923077 , 4573.84615385 , 4581.53846154 , 4551.79487179 , 4294.87179487 , 4026.15384615 , 3871.79487179 , 4244.61538462 , 4204.1025641 , 4501.02564103 , 4498.97435897 , 1719.0 , 1692.0 , 7.663 , 0.0 , 0.0 , 0.0 , 0.0 , 

92.0 , 4420.0 , 4612.82051282 , 4467.17948718 , 4206.66666667 , 4573.84615385 , 4580.0 , 4554.35897436 , 4291.28205128 , 4020.51282051 , 3871.79487179 , 4243.58974359 , 4202.56410256 , 4497.94871795 , 4501.53846154 , 1720.0 , 1693.0 , 7.67 , 0.0 , 0.0 , 0.0 , 0.0 , 

93.0 , 4419.48717949 , 4612.30769231 , 4466.15384615 , 4204.1025641 , 4574.35897436 , 4580.0 , 4553.33333333 , 4288.71794872 , 4018.97435897 , 3870.76923077 , 4241.53846154 , 4197.94871795 , 4495.38461538 , 4497.94871795 , 1720.0 , 1692.0 , 7.678 , 0.0 , 0.0 , 0.0 , 0.0 , 

94.0 , 4421.02564103 , 4611.28205128 , 4462.05128205 , 4208.20512821 , 4570.76923077 , 4580.0 , 4552.30769231 , 4290.25641026 , 4023.07692308 , 3868.71794872 , 4240.51282051 , 4195.38461538 , 4497.43589744 , 4492.82051282 , 1720.0 , 1692.0 , 7.686 , 0.0 , 0.0 , 0.0 , 0.0 , 

95.0 , 4421.53846154 , 4612.82051282 , 4464.1025641 , 4209.23076923 , 4569.74358974 , 4580.51282051 , 4552.82051282 , 4284.61538462 , 4020.0 , 3868.71794872 , 4240.0 , 4192.82051282 , 4496.92307692 , 4492.82051282 , 1719.0 , 1692.0 , 7.694 , 0.0 , 0.0 , 0.0 , 0.0 , 

96.0 , 4420.51282051 , 4613.84615385 , 4466.66666667 , 4206.66666667 , 4574.87179487 , 4582.05128205 , 4553.84615385 , 4280.51282051 , 4016.92307692 , 3869.23076923 , 4240.0 , 4192.82051282 , 4491.28205128 , 4494.35897436 , 1720.0 , 1693.0 , 7.702 , 0.0 , 0.0 , 0.0 , 0.0 , 

97.0 , 4421.02564103 , 4612.82051282 , 4464.61538462 , 4206.15384615 , 4576.92307692 , 4581.53846154 , 4552.82051282 , 4282.05128205 , 4015.38461538 , 3865.64102564 , 4238.46153846 , 4192.82051282 , 4489.74358974 , 4493.33333333 , 1720.0 , 1691.0 , 7.71 , 0.0 , 0.0 , 0.0 , 0.0 , 

98.0 , 4421.02564103 , 4611.79487179 , 4464.1025641 , 4207.17948718 , 4573.84615385 , 4580.51282051 , 4552.30769231 , 4282.05128205 , 4010.76923077 , 3863.07692308 , 4238.97435897 , 4192.82051282 , 4490.76923077 , 4492.82051282 , 1719.0 , 1693.0 , 7.717 , 0.0 , 0.0 , 0.0 , 0.0 , 

99.0 , 4420.0 , 4611.79487179 , 4464.61538462 , 4206.66666667 , 4573.33333333 , 4582.05128205 , 4553.33333333 , 4274.35897436 , 4009.23076923 , 3862.56410256 , 4239.48717949 , 4190.25641026 , 4489.74358974 , 4491.28205128 , 1721.0 , 1693.0 , 7.725 , 0.0 , 0.0 , 0.0 , 0.0 , 

100.0 , 4422.05128205 , 4613.84615385 , 4465.12820513 , 4205.64102564 , 4575.38461538 , 4582.56410256 , 4554.35897436 , 4276.41025641 , 4016.41025641 , 3865.64102564 , 4236.92307692 , 4190.76923077 , 4490.76923077 , 4493.84615385 , 1719.0 , 1693.0 , 7.733 , 0.0 , 0.0 , 0.0 , 0.0 , 

101.0 , 4423.58974359 , 4613.84615385 , 4465.12820513 , 4206.66666667 , 4574.87179487 , 4581.02564103 , 4553.84615385 , 4282.05128205 , 4019.48717949 , 3866.66666667 , 4235.8974359 , 4193.84615385 , 4493.33333333 , 4496.92307692 , 1720.0 , 1693.0 , 7.741 , 0.0 , 0.0 , 0.0 , 0.0 , 

102.0 , 4421.53846154 , 4610.25641026 , 4465.12820513 , 4208.71794872 , 4572.82051282 , 4580.51282051 , 4552.30769231 , 4283.07692308 , 4018.46153846 , 3864.61538462 , 4240.0 , 4195.8974359 , 4497.43589744 , 4496.92307692 , 1720.0 , 1693.0 , 7.75 , 0.0 , 0.0 , 0.0 , 0.0 , 

103.0 , 4420.0 , 4610.25641026 , 4465.12820513 , 4208.20512821 , 4573.84615385 , 4579.48717949 , 4551.28205128 , 4280.0 , 4013.33333333 , 3862.05128205 , 4240.51282051 , 4194.35897436 , 4496.92307692 , 4495.38461538 , 1720.0 , 1693.0 , 7.756 , 0.0 , 0.0 , 0.0 , 0.0 , 

104.0 , 4422.56410256 , 4613.33333333 , 4465.64102564 , 4207.17948718 , 4575.8974359 , 4578.46153846 , 4553.33333333 , 4286.66666667 , 4020.0 , 3869.74358974 , 4243.58974359 , 4199.48717949 , 4499.48717949 , 4497.94871795 , 1720.0 , 1692.0 , 7.764 , 0.0 , 0.0 , 0.0 , 0.0 , 

105.0 , 4422.56410256 , 4613.33333333 , 4464.1025641 , 4208.20512821 , 4575.38461538 , 4580.0 , 4554.35897436 , 4288.20512821 , 4023.07692308 , 3870.25641026 , 4242.56410256 , 4199.48717949 , 4498.97435897 , 4496.41025641 , 1720.0 , 1693.0 , 7.772 , 0.0 , 0.0 , 0.0 , 0.0 , 

106.0 , 4419.48717949 , 4610.76923077 , 4466.15384615 , 4209.23076923 , 4575.38461538 , 4581.02564103 , 4554.35897436 , 4290.76923077 , 4025.64102564 , 3868.71794872 , 4246.66666667 , 4200.51282051 , 4503.07692308 , 4497.94871795 , 1720.0 , 1692.0 , 7.78 , 0.0 , 0.0 , 0.0 , 0.0 , 

107.0 , 4420.0 , 4612.82051282 , 4467.69230769 , 4208.71794872 , 4575.8974359 , 4582.56410256 , 4553.84615385 , 4295.38461538 , 4023.58974359 , 3870.25641026 , 4248.20512821 , 4201.53846154 , 4503.07692308 , 4499.48717949 , 1720.0 , 1692.0 , 7.788 , 0.0 , 0.0 , 0.0 , 0.0 , 

108.0 , 4420.51282051 , 4614.35897436 , 4466.15384615 , 4208.20512821 , 4574.87179487 , 4581.53846154 , 4552.30769231 , 4297.94871795 , 4024.1025641 , 3871.28205128 , 4248.71794872 , 4203.07692308 , 4501.53846154 , 4500.0 , 1720.0 , 1692.0 , 7.796 , 0.0 , 0.0 , 0.0 , 0.0 , 

109.0 , 4420.0 , 4610.76923077 , 4464.1025641 , 4208.20512821 , 4575.8974359 , 4578.97435897 , 4552.82051282 , 4289.23076923 , 4022.05128205 , 3868.71794872 , 4244.1025641 , 4199.48717949 , 4496.92307692 , 4496.41025641 , 1720.0 , 1693.0 , 7.803 , 0.0 , 0.0 , 0.0 , 0.0 , 

110.0 , 4420.0 , 4607.69230769 , 4464.61538462 , 4207.17948718 , 4575.8974359 , 4578.46153846 , 4555.38461538 , 4281.53846154 , 4017.43589744 , 3869.74358974 , 4239.48717949 , 4194.87179487 , 4491.79487179 , 4492.30769231 , 1721.0 , 1691.0 , 7.811 , 0.0 , 0.0 , 0.0 , 0.0 , 

111.0 , 4420.0 , 4609.23076923 , 4463.58974359 , 4206.66666667 , 4572.82051282 , 4579.48717949 , 4555.38461538 , 4286.66666667 , 4018.46153846 , 3870.25641026 , 4239.48717949 , 4196.41025641 , 4493.33333333 , 4492.30769231 , 1719.0 , 1693.0 , 7.819 , 0.0 , 0.0 , 0.0 , 0.0 , 

112.0 , 4422.05128205 , 4611.28205128 , 4465.12820513 , 4206.66666667 , 4572.82051282 , 4579.48717949 , 4552.30769231 , 4286.66666667 , 4017.43589744 , 3868.20512821 , 4239.48717949 , 4195.38461538 , 4494.35897436 , 4496.92307692 , 1720.0 , 1693.0 , 7.827 , 0.0 , 0.0 , 0.0 , 0.0 , 

113.0 , 4422.56410256 , 4611.79487179 , 4464.61538462 , 4207.17948718 , 4574.35897436 , 4580.0 , 4552.82051282 , 4281.02564103 , 4013.84615385 , 3868.71794872 , 4240.51282051 , 4193.33333333 , 4492.30769231 , 4496.41025641 , 1720.0 , 1692.0 , 7.835 , 0.0 , 0.0 , 0.0 , 0.0 , 

114.0 , 4420.0 , 4612.30769231 , 4463.07692308 , 4206.15384615 , 4573.84615385 , 4580.51282051 , 4553.84615385 , 4280.51282051 , 4012.30769231 , 3868.20512821 , 4239.48717949 , 4193.33333333 , 4490.25641026 , 4491.28205128 , 1720.0 , 1693.0 , 7.843 , 0.0 , 0.0 , 0.0 , 0.0 , 

115.0 , 4420.51282051 , 4612.30769231 , 4465.12820513 , 4203.58974359 , 4574.87179487 , 4580.0 , 4553.84615385 , 4281.53846154 , 4013.33333333 , 3865.64102564 , 4236.92307692 , 4192.82051282 , 4488.71794872 , 4491.28205128 , 1720.0 , 1692.0 , 7.851 , 0.0 , 0.0 , 0.0 , 0.0 , 

116.0 , 4423.07692308 , 4609.23076923 , 4465.12820513 , 4205.12820513 , 4576.41025641 , 4580.51282051 , 4554.35897436 , 4274.87179487 , 4012.30769231 , 3864.61538462 , 4236.41025641 , 4189.74358974 , 4488.71794872 , 4493.84615385 , 1720.0 , 1693.0 , 7.859 , 0.0 , 0.0 , 0.0 , 0.0 , 

117.0 , 4420.51282051 , 4606.15384615 , 4462.56410256 , 4206.15384615 , 4575.38461538 , 4578.97435897 , 4552.82051282 , 4275.38461538 , 4011.79487179 , 3865.64102564 , 4240.51282051 , 4192.82051282 , 4492.30769231 , 4494.87179487 , 1721.0 , 1693.0 , 7.867 , 0.0 , 0.0 , 0.0 , 0.0 , 

118.0 , 4418.97435897 , 4609.74358974 , 4463.58974359 , 4205.12820513 , 4573.84615385 , 4575.8974359 , 4551.79487179 , 4279.48717949 , 4013.33333333 , 3865.64102564 , 4241.02564103 , 4194.87179487 , 4495.38461538 , 4496.92307692 , 1720.0 , 1692.0 , 7.875 , 0.0 , 0.0 , 0.0 , 0.0 , 

119.0 , 4422.56410256 , 4614.35897436 , 4466.66666667 , 4207.17948718 , 4574.35897436 , 4577.94871795 , 4552.82051282 , 4283.58974359 , 4019.48717949 , 3867.69230769 , 4243.07692308 , 4196.92307692 , 4497.94871795 , 4498.97435897 , 1720.0 , 1692.0 , 7.883 , 0.0 , 0.0 , 0.0 , 0.0 , 

120.0 , 4423.07692308 , 4612.82051282 , 4464.61538462 , 4210.25641026 , 4574.35897436 , 4582.05128205 , 4553.84615385 , 4281.02564103 , 4020.51282051 , 3867.69230769 , 4244.61538462 , 4196.41025641 , 4497.43589744 , 4496.41025641 , 1720.0 , 1693.0 , 7.89 , 0.0 , 0.0 , 0.0 , 0.0 , 

121.0 , 4421.02564103 , 4610.76923077 , 4465.64102564 , 4209.74358974 , 4571.79487179 , 4581.53846154 , 4553.33333333 , 4287.69230769 , 4023.58974359 , 3869.74358974 , 4248.20512821 , 4200.51282051 , 4501.02564103 , 4501.02564103 , 1720.0 , 1693.0 , 7.897 , 0.0 , 0.0 , 0.0 , 0.0 , 

122.0 , 4426.15384615 , 4612.82051282 , 4466.66666667 , 4208.71794872 , 4570.76923077 , 4581.53846154 , 4552.30769231 , 4289.74358974 , 4022.05128205 , 3867.69230769 , 4247.17948718 , 4198.97435897 , 4502.56410256 , 4501.53846154 , 1720.0 , 1693.0 , 7.905 , 0.0 , 0.0 , 0.0 , 0.0 , 

123.0 , 4426.66666667 , 4613.33333333 , 4467.69230769 , 4208.71794872 , 4573.33333333 , 4582.05128205 , 4551.28205128 , 4292.30769231 , 4024.61538462 , 3869.74358974 , 4246.15384615 , 4201.02564103 , 4503.07692308 , 4497.43589744 , 1720.0 , 1692.0 , 7.913 , 0.0 , 0.0 , 0.0 , 0.0 , 

124.0 , 4420.0 , 4611.79487179 , 4465.12820513 , 4206.66666667 , 4575.38461538 , 4580.0 , 4552.82051282 , 4293.33333333 , 4023.07692308 , 3871.28205128 , 4242.56410256 , 4200.51282051 , 4500.0 , 4495.8974359 , 1720.0 , 1693.0 , 7.92 , 0.0 , 0.0 , 0.0 , 0.0 , 

125.0 , 4419.48717949 , 4611.79487179 , 4464.1025641 , 4205.64102564 , 4573.33333333 , 4579.48717949 , 4554.35897436 , 4292.82051282 , 4020.51282051 , 3870.25641026 , 4245.64102564 , 4198.97435897 , 4498.97435897 , 4497.94871795 , 1720.0 , 1692.0 , 7.929 , 0.0 , 0.0 , 0.0 , 0.0 , 

126.0 , 4423.07692308 , 4613.33333333 , 4465.64102564 , 4207.69230769 , 4571.79487179 , 4580.0 , 4552.82051282 , 4290.76923077 , 4020.0 , 3867.17948718 , 4247.69230769 , 4200.0 , 4498.97435897 , 4496.92307692 , 1720.0 , 1692.0 , 7.935 , 0.0 , 0.0 , 0.0 , 0.0 , 

127.0 , 4421.53846154 , 4611.79487179 , 4466.15384615 , 4209.23076923 , 4572.82051282 , 4578.97435897 , 4551.79487179 , 4287.17948718 , 4017.43589744 , 3866.15384615 , 4242.05128205 , 4198.97435897 , 4495.38461538 , 4494.87179487 , 1720.0 , 1691.0 , 7.943 , 0.0 , 0.0 , 0.0 , 0.0 , 

128.0 , 4423.07692308 , 4610.25641026 , 4464.1025641 , 4209.23076923 , 4572.30769231 , 4578.46153846 , 4553.33333333 , 4283.58974359 , 4016.41025641 , 3867.17948718 , 4239.48717949 , 4195.38461538 , 4494.87179487 , 4497.94871795 , 1720.0 , 1693.0 , 7.951 , 0.0 , 0.0 , 0.0 , 0.0 , 

0.0 , 4426.66666667 , 4610.25641026 , 4464.1025641 , 4207.69230769 , 4571.79487179 , 4578.46153846 , 4553.33333333 , 4280.0 , 4014.35897436 , 3867.69230769 , 4240.0 , 4191.79487179 , 4495.8974359 , 4495.8974359 , 1721.0 , 1693.0 , 7.959 , 0.0 , 0.0 , 0.0 , 0.0 , 

1.0 , 4421.53846154 , 4611.28205128 , 4465.64102564 , 4208.20512821 , 4573.33333333 , 4578.97435897 , 4552.30769231 , 4280.51282051 , 4011.79487179 , 3865.64102564 , 4238.46153846 , 4191.79487179 , 4493.84615385 , 4492.30769231 , 1719.0 , 1693.0 , 7.967 , 0.0 , 0.0 , 0.0 , 0.0 , 

2.0 , 4418.46153846 , 4611.79487179 , 4464.61538462 , 4209.23076923 , 4574.87179487 , 4580.51282051 , 4551.79487179 , 4280.0 , 4011.79487179 , 3861.53846154 , 4235.8974359 , 4191.28205128 , 4490.25641026 , 4493.84615385 , 1721.0 , 1693.0 , 7.974 , 0.0 , 0.0 , 0.0 , 0.0 , 

3.0 , 4423.07692308 , 4611.28205128 , 4465.12820513 , 4207.69230769 , 4575.8974359 , 4578.97435897 , 4553.33333333 , 4277.94871795 , 4015.38461538 , 3863.07692308 , 4237.94871795 , 4192.30769231 , 4490.25641026 , 4494.35897436 , 1720.0 , 1692.0 , 7.982 , 0.0 , 0.0 , 0.0 , 0.0 , 

4.0 , 4422.05128205 , 4613.33333333 , 4465.64102564 , 4206.15384615 , 4575.38461538 , 4577.94871795 , 4553.84615385 , 4277.94871795 , 4016.41025641 , 3866.66666667 , 4240.0 , 4194.87179487 , 4492.30769231 , 4493.33333333 , 1720.0 , 1693.0 , 7.99 , 0.0 , 0.0 , 0.0 , 0.0 , 

5.0 , 4418.97435897 , 4614.87179487 , 4464.61538462 , 4206.15384615 , 4574.35897436 , 4580.0 , 4553.33333333 , 4282.56410256 , 4017.43589744 , 3867.69230769 , 4242.56410256 , 4196.92307692 , 4494.87179487 , 4494.87179487 , 1720.0 , 1692.0 , 7.998 , 0.0 , 0.0 , 0.0 , 0.0 , 

6.0 , 4421.53846154 , 4611.79487179 , 4465.12820513 , 4208.20512821 , 4574.35897436 , 4581.02564103 , 4553.84615385 , 4282.56410256 , 4016.41025641 , 3867.17948718 , 4242.05128205 , 4194.87179487 , 4493.84615385 , 4494.35897436 , 1719.0 , 1693.0 , 8.006 , 0.0 , 0.0 , 0.0 , 0.0 , 

7.0 , 4423.58974359 , 4611.28205128 , 4466.15384615 , 4209.23076923 , 4574.35897436 , 4580.51282051 , 4553.84615385 , 4285.12820513 , 4020.51282051 , 3870.25641026 , 4244.61538462 , 4199.48717949 , 4497.94871795 , 4497.94871795 , 1720.0 , 1693.0 , 8.014 , 0.0 , 0.0 , 0.0 , 0.0 , 

8.0 , 4420.0 , 4613.84615385 , 4464.1025641 , 4208.20512821 , 4574.35897436 , 4580.51282051 , 4552.82051282 , 4286.15384615 , 4021.53846154 , 3869.74358974 , 4243.07692308 , 4197.94871795 , 4498.97435897 , 4498.97435897 , 1720.0 , 1693.0 , 8.022 , 0.0 , 0.0 , 0.0 , 0.0 , 

9.0 , 4419.48717949 , 4611.28205128 , 4466.66666667 , 4207.69230769 , 4573.33333333 , 4580.51282051 , 4553.33333333 , 4291.79487179 , 4024.1025641 , 3870.76923077 , 4245.12820513 , 4200.0 , 4500.51282051 , 4498.97435897 , 1720.0 , 1692.0 , 8.03 , 0.0 , 0.0 , 0.0 , 0.0 , 

10.0 , 4423.58974359 , 4609.74358974 , 4468.20512821 , 4208.71794872 , 4570.76923077 , 4580.51282051 , 4554.87179487 , 4293.33333333 , 4022.56410256 , 3870.25641026 , 4247.17948718 , 4203.58974359 , 4500.0 , 4498.97435897 , 1719.0 , 1693.0 , 8.038 , 0.0 , 0.0 , 0.0 , 0.0 , 

11.0 , 4424.1025641 , 4613.33333333 , 4464.61538462 , 4210.76923077 , 4571.28205128 , 4580.51282051 , 4553.84615385 , 4294.87179487 , 4023.07692308 , 3870.76923077 , 4247.69230769 , 4203.07692308 , 4501.02564103 , 4503.58974359 , 1720.0 , 1692.0 , 8.046 , 0.0 , 0.0 , 0.0 , 0.0 , 

12.0 , 4419.48717949 , 4612.82051282 , 4463.07692308 , 4210.76923077 , 4574.35897436 , 4580.0 , 4552.30769231 , 4292.30769231 , 4022.56410256 , 3869.23076923 , 4244.1025641 , 4197.94871795 , 4500.0 , 4501.53846154 , 1719.0 , 1692.0 , 8.054 , 0.0 , 0.0 , 0.0 , 0.0 , 

13.0 , 4417.94871795 , 4611.79487179 , 4468.20512821 , 4207.17948718 , 4574.87179487 , 4578.46153846 , 4551.79487179 , 4286.66666667 , 4021.53846154 , 3866.66666667 , 4243.58974359 , 4198.97435897 , 4496.41025641 , 4496.92307692 , 1721.0 , 1693.0 , 8.061 , 0.0 , 0.0 , 0.0 , 0.0 , 

14.0 , 4421.53846154 , 4613.84615385 , 4468.20512821 , 4205.12820513 , 4572.82051282 , 4576.41025641 , 4552.82051282 , 4286.66666667 , 4021.53846154 , 3866.15384615 , 4245.12820513 , 4199.48717949 , 4496.41025641 , 4498.46153846 , 1719.0 , 1692.0 , 8.07 , 0.0 , 0.0 , 0.0 , 0.0 , 

15.0 , 4421.53846154 , 4612.30769231 , 4465.12820513 , 4208.20512821 , 4573.33333333 , 4576.92307692 , 4553.84615385 , 4285.64102564 , 4017.94871795 , 3865.12820513 , 4243.58974359 , 4194.35897436 , 4495.8974359 , 4497.43589744 , 1719.0 , 1693.0 , 8.078 , 0.0 , 0.0 , 0.0 , 0.0 , 

16.0 , 4419.48717949 , 4611.79487179 , 4465.64102564 , 4210.25641026 , 4574.35897436 , 4578.46153846 , 4553.33333333 , 4282.05128205 , 4014.87179487 , 3865.64102564 , 4240.0 , 4193.33333333 , 4496.41025641 , 4495.38461538 , 1720.0 , 1692.0 , 8.086 , 0.0 , 0.0 , 0.0 , 0.0 , 

17.0 , 4422.56410256 , 4611.79487179 , 4465.64102564 , 4207.17948718 , 4573.84615385 , 4578.97435897 , 4551.79487179 , 4279.48717949 , 4012.30769231 , 3865.12820513 , 4234.87179487 , 4192.82051282 , 4493.33333333 , 4493.84615385 , 1719.0 , 1693.0 , 8.094 , 0.0 , 0.0 , 0.0 , 0.0 , 

18.0 , 4424.1025641 , 4609.74358974 , 4465.64102564 , 4205.12820513 , 4573.84615385 , 4579.48717949 , 4551.28205128 , 4280.0 , 4009.23076923 , 3863.07692308 , 4236.92307692 , 4190.76923077 , 4489.74358974 , 4494.35897436 , 1720.0 , 1692.0 , 8.102 , 0.0 , 0.0 , 0.0 , 0.0 , 

19.0 , 4421.53846154 , 4611.79487179 , 4464.61538462 , 4207.69230769 , 4574.35897436 , 4579.48717949 , 4552.82051282 , 4277.43589744 , 4010.25641026 , 3863.58974359 , 4240.0 , 4191.79487179 , 4490.25641026 , 4491.79487179 , 1719.0 , 1693.0 , 8.109 , 0.0 , 0.0 , 0.0 , 0.0 , 

20.0 , 4421.53846154 , 4613.84615385 , 4465.12820513 , 4210.25641026 , 4573.84615385 , 4580.0 , 4553.33333333 , 4276.92307692 , 4015.8974359 , 3866.15384615 , 4238.97435897 , 4194.35897436 , 4493.33333333 , 4490.76923077 , 1720.0 , 1693.0 , 8.116 , 0.0 , 0.0 , 0.0 , 0.0 , 

21.0 , 4422.05128205 , 4611.79487179 , 4467.69230769 , 4208.71794872 , 4571.28205128 , 4579.48717949 , 4553.33333333 , 4278.46153846 , 4015.8974359 , 3868.20512821 , 4240.51282051 , 4193.84615385 , 4494.87179487 , 4494.35897436 , 1720.0 , 1692.0 , 8.124 , 0.0 , 0.0 , 0.0 , 0.0 , 

22.0 , 4422.05128205 , 4612.30769231 , 4468.71794872 , 4208.20512821 , 4573.33333333 , 4579.48717949 , 4553.33333333 , 4284.61538462 , 4017.94871795 , 3870.25641026 , 4243.58974359 , 4195.8974359 , 4496.41025641 , 4496.92307692 , 1720.0 , 1693.0 , 8.132 , 0.0 , 0.0 , 0.0 , 0.0 , 

23.0 , 4423.07692308 , 4611.79487179 , 4464.1025641 , 4209.74358974 , 4576.41025641 , 4580.51282051 , 4554.35897436 , 4283.58974359 , 4018.46153846 , 3868.71794872 , 4242.05128205 , 4193.84615385 , 4493.84615385 , 4492.30769231 , 1719.0 , 1692.0 , 8.14 , 0.0 , 0.0 , 0.0 , 0.0 , 

24.0 , 4424.61538462 , 4607.69230769 , 4465.12820513 , 4209.74358974 , 4573.33333333 , 4580.51282051 , 4553.33333333 , 4287.69230769 , 4022.56410256 , 3871.28205128 , 4247.69230769 , 4197.43589744 , 4496.92307692 , 4494.35897436 , 1721.0 , 1693.0 , 8.147 , 0.0 , 0.0 , 0.0 , 0.0 , 

25.0 , 4422.56410256 , 4610.76923077 , 4466.15384615 , 4209.23076923 , 4571.79487179 , 4580.0 , 4551.28205128 , 4289.23076923 , 4021.02564103 , 3870.76923077 , 4245.64102564 , 4199.48717949 , 4499.48717949 , 4499.48717949 , 1720.0 , 1691.0 , 8.155 , 0.0 , 0.0 , 0.0 , 0.0 , 

26.0 , 4420.51282051 , 4614.35897436 , 4466.66666667 , 4208.71794872 , 4573.84615385 , 4580.51282051 , 4552.82051282 , 4294.35897436 , 4025.12820513 , 3870.25641026 , 4244.1025641 , 4202.56410256 , 4503.07692308 , 4501.53846154 , 1720.0 , 1694.0 , 8.163 , 0.0 , 0.0 , 0.0 , 0.0 , 

27.0 , 4420.0 , 4611.79487179 , 4468.20512821 , 4209.23076923 , 4574.87179487 , 4578.97435897 , 4554.87179487 , 4295.38461538 , 4025.64102564 , 3871.28205128 , 4247.17948718 , 4202.05128205 , 4501.02564103 , 4500.0 , 1720.0 , 1692.0 , 8.17 , 0.0 , 0.0 , 0.0 , 0.0 , 

28.0 , 4419.48717949 , 4610.25641026 , 4468.20512821 , 4209.23076923 , 4574.35897436 , 4576.92307692 , 4553.33333333 , 4291.79487179 , 4022.05128205 , 3874.35897436 , 4247.17948718 , 4200.51282051 , 4500.51282051 , 4502.05128205 , 1720.0 , 1693.0 , 8.178 , 0.0 , 0.0 , 0.0 , 0.0 , 

29.0 , 4420.0 , 4613.33333333 , 4465.64102564 , 4209.23076923 , 4574.35897436 , 4578.97435897 , 4550.76923077 , 4288.71794872 , 4018.46153846 , 3870.25641026 , 4242.56410256 , 4197.94871795 , 4500.51282051 , 4500.51282051 , 1720.0 , 1692.0 , 8.186 , 0.0 , 0.0 , 0.0 , 0.0 , 

30.0 , 4421.02564103 , 4611.79487179 , 4465.12820513 , 4208.71794872 , 4574.35897436 , 4579.48717949 , 4551.79487179 , 4286.15384615 , 4016.41025641 , 3865.12820513 , 4241.53846154 , 4196.41025641 , 4497.43589744 , 4495.8974359 , 1719.0 , 1693.0 , 8.193 , 0.0 , 0.0 , 0.0 , 0.0 , 

31.0 , 4423.07692308 , 4608.71794872 , 4467.69230769 , 4208.20512821 , 4574.35897436 , 4578.46153846 , 4553.84615385 , 4285.64102564 , 4017.94871795 , 3866.66666667 , 4241.53846154 , 4197.43589744 , 4494.87179487 , 4496.41025641 , 1720.0 , 1692.0 , 8.201 , 0.0 , 0.0 , 0.0 , 0.0 , 

32.0 , 4424.61538462 , 4610.25641026 , 4466.66666667 , 4207.69230769 , 4573.84615385 , 4580.0 , 4553.33333333 , 4283.58974359 , 4017.43589744 , 3867.17948718 , 4239.48717949 , 4197.43589744 , 4492.30769231 , 4497.43589744 , 1719.0 , 1692.0 , 8.209 , 0.0 , 0.0 , 0.0 , 0.0 , 

33.0 , 4421.53846154 , 4611.28205128 , 4465.12820513 , 4209.23076923 , 4574.35897436 , 4579.48717949 , 4552.30769231 , 4280.51282051 , 4016.92307692 , 3866.66666667 , 4240.0 , 4195.38461538 , 4491.79487179 , 4496.41025641 , 1720.0 , 1693.0 , 8.217 , 0.0 , 0.0 , 0.0 , 0.0 , 

34.0 , 4420.0 , 4609.74358974 , 4464.61538462 , 4210.25641026 , 4574.35897436 , 4575.8974359 , 4552.30769231 , 4276.92307692 , 4013.33333333 , 3863.58974359 , 4238.46153846 , 4191.79487179 , 4490.25641026 , 4493.84615385 , 1720.0 , 1692.0 , 8.225 , 0.0 , 0.0 , 0.0 , 0.0 , 

35.0 , 4421.53846154 , 4609.23076923 , 4464.61538462 , 4207.69230769 , 4575.38461538 , 4577.43589744 , 4552.82051282 , 4277.43589744 , 4010.76923077 , 3861.53846154 , 4237.94871795 , 4189.23076923 , 4488.71794872 , 4494.35897436 , 1720.0 , 1693.0 , 8.232 , 0.0 , 0.0 , 0.0 , 0.0 , 

36.0 , 4419.48717949 , 4611.28205128 , 4465.12820513 , 4207.69230769 , 4576.92307692 , 4582.05128205 , 4552.82051282 , 4278.46153846 , 4010.76923077 , 3865.12820513 , 4238.46153846 , 4188.71794872 , 4489.23076923 , 4495.38461538 , 1720.0 , 1692.0 , 8.24 , 0.0 , 0.0 , 0.0 , 0.0 , 

37.0 , 4419.48717949 , 4613.33333333 , 4466.15384615 , 4207.17948718 , 4576.41025641 , 4581.53846154 , 4552.30769231 , 4277.94871795 , 4014.35897436 , 3869.23076923 , 4239.48717949 , 4191.28205128 , 4493.33333333 , 4493.84615385 , 1720.0 , 1693.0 , 8.248 , 0.0 , 0.0 , 0.0 , 0.0 , 

38.0 , 4422.05128205 , 4611.79487179 , 4465.64102564 , 4207.17948718 , 4574.87179487 , 4577.94871795 , 4552.82051282 , 4280.0 , 4015.8974359 , 3866.15384615 , 4241.02564103 , 4191.28205128 , 4493.84615385 , 4492.82051282 , 1721.0 , 1692.0 , 8.256 , 0.0 , 0.0 , 0.0 , 0.0 , 

39.0 , 4423.07692308 , 4609.23076923 , 4464.1025641 , 4209.23076923 , 4574.87179487 , 4578.97435897 , 4552.82051282 , 4287.69230769 , 4020.51282051 , 3869.23076923 , 4242.05128205 , 4195.38461538 , 4494.35897436 , 4497.43589744 , 1719.0 , 1693.0 , 8.264 , 0.0 , 0.0 , 0.0 , 0.0 , 

40.0 , 4420.0 , 4609.74358974 , 4464.61538462 , 4207.69230769 , 4574.35897436 , 4581.02564103 , 4552.82051282 , 4283.58974359 , 4022.05128205 , 3871.79487179 , 4238.97435897 , 4195.38461538 , 4495.38461538 , 4497.43589744 , 1720.0 , 1693.0 , 8.272 , 0.0 , 0.0 , 0.0 , 0.0 , 

41.0 , 4421.02564103 , 4611.28205128 , 4468.20512821 , 4206.66666667 , 4571.28205128 , 4580.51282051 , 4552.30769231 , 4288.71794872 , 4026.15384615 , 3872.30769231 , 4244.61538462 , 4200.51282051 , 4501.53846154 , 4498.46153846 , 1719.0 , 1692.0 , 8.279 , 0.0 , 0.0 , 0.0 , 0.0 , 

42.0 , 4424.1025641 , 4610.76923077 , 4468.20512821 , 4209.23076923 , 4574.35897436 , 4580.0 , 4553.33333333 , 4294.35897436 , 4026.15384615 , 3869.23076923 , 4246.15384615 , 4201.53846154 , 4501.53846154 , 4500.51282051 , 1720.0 , 1693.0 , 8.286 , 0.0 , 0.0 , 0.0 , 0.0 , 

43.0 , 4422.56410256 , 4609.74358974 , 4467.17948718 , 4208.71794872 , 4576.41025641 , 4580.0 , 4553.33333333 , 4295.38461538 , 4026.66666667 , 3868.71794872 , 4244.61538462 , 4202.05128205 , 4502.56410256 , 4504.1025641 , 1720.0 , 1692.0 , 8.294 , 0.0 , 0.0 , 0.0 , 0.0 , 

44.0 , 4421.02564103 , 4612.30769231 , 4465.12820513 , 4206.66666667 , 4572.30769231 , 4582.05128205 , 4551.28205128 , 4291.79487179 , 4022.05128205 , 3867.17948718 , 4241.53846154 , 4199.48717949 , 4501.53846154 , 4500.0 , 1720.0 , 1693.0 , 8.303 , 0.0 , 0.0 , 0.0 , 0.0 , 

45.0 , 4423.07692308 , 4612.30769231 , 4465.12820513 , 4207.69230769 , 4570.25641026 , 4580.0 , 4550.76923077 , 4289.23076923 , 4018.46153846 , 3869.23076923 , 4241.53846154 , 4198.46153846 , 4498.97435897 , 4495.38461538 , 1719.0 , 1693.0 , 8.311 , 0.0 , 0.0 , 0.0 , 0.0 , 

46.0 , 4421.53846154 , 4611.79487179 , 4465.64102564 , 4206.15384615 , 4570.25641026 , 4578.97435897 , 4552.82051282 , 4288.71794872 , 4020.0 , 3868.71794872 , 4241.53846154 , 4200.51282051 , 4496.41025641 , 4497.43589744 , 1720.0 , 1693.0 , 8.318 , 0.0 , 0.0 , 0.0 , 0.0 , 

47.0 , 4417.43589744 , 4611.28205128 , 4466.66666667 , 4204.61538462 , 4571.79487179 , 4580.51282051 , 4553.33333333 , 4285.12820513 , 4017.43589744 , 3865.12820513 , 4239.48717949 , 4195.8974359 , 4493.33333333 , 4498.97435897 , 1720.0 , 1692.0 , 8.326 , 0.0 , 0.0 , 0.0 , 0.0 , 

48.0 , 4421.53846154 , 4611.28205128 , 4465.64102564 , 4207.17948718 , 4575.38461538 , 4580.0 , 4552.82051282 , 4286.15384615 , 4015.8974359 , 3867.17948718 , 4238.97435897 , 4192.82051282 , 4491.79487179 , 4496.41025641 , 1720.0 , 1693.0 , 8.334 , 0.0 , 0.0 , 0.0 , 0.0 , 

49.0 , 4424.61538462 , 4611.28205128 , 4465.12820513 , 4207.69230769 , 4574.87179487 , 4577.43589744 , 4554.35897436 , 4286.15384615 , 4017.94871795 , 3868.71794872 , 4239.48717949 , 4193.84615385 , 4491.79487179 , 4493.33333333 , 1720.0 , 1692.0 , 8.342 , 0.0 , 0.0 , 0.0 , 0.0 , 

50.0 , 4422.56410256 , 4610.76923077 , 4465.64102564 , 4205.64102564 , 4572.30769231 , 4578.97435897 , 4554.35897436 , 4281.02564103 , 4016.41025641 , 3866.15384615 , 4239.48717949 , 4192.82051282 , 4490.76923077 , 4492.30769231 , 1720.0 , 1693.0 , 8.35 , 0.0 , 0.0 , 0.0 , 0.0 , 

51.0 , 4421.02564103 , 4610.25641026 , 4465.12820513 , 4205.64102564 , 4574.87179487 , 4580.0 , 4552.30769231 , 4275.8974359 , 4012.30769231 , 3863.58974359 , 4237.94871795 , 4189.74358974 , 4488.20512821 , 4492.30769231 , 1719.0 , 1692.0 , 8.358 , 0.0 , 0.0 , 0.0 , 0.0 , 

52.0 , 4421.53846154 , 4609.74358974 , 4465.64102564 , 4205.64102564 , 4577.43589744 , 4577.94871795 , 4551.79487179 , 4278.97435897 , 4014.35897436 , 3864.61538462 , 4238.46153846 , 4192.82051282 , 4488.20512821 , 4492.82051282 , 1720.0 , 1693.0 , 8.365 , 0.0 , 0.0 , 0.0 , 0.0 , 

53.0 , 4421.53846154 , 4612.30769231 , 4466.66666667 , 4206.66666667 , 4574.87179487 , 4580.51282051 , 4552.30769231 , 4281.53846154 , 4016.41025641 , 3865.64102564 , 4239.48717949 , 4194.35897436 , 4491.79487179 , 4492.30769231 , 1720.0 , 1692.0 , 8.373 , 0.0 , 0.0 , 0.0 , 0.0 , 

54.0 , 4422.56410256 , 4613.84615385 , 4466.66666667 , 4208.20512821 , 4572.82051282 , 4581.53846154 , 4552.82051282 , 4285.12820513 , 4019.48717949 , 3868.71794872 , 4241.53846154 , 4194.35897436 , 4495.38461538 , 4494.35897436 , 1720.0 , 1693.0 , 8.381 , 0.0 , 0.0 , 0.0 , 0.0 , 

55.0 , 4422.56410256 , 4611.28205128 , 4464.61538462 , 4207.17948718 , 4573.33333333 , 4578.97435897 , 4553.33333333 , 4284.61538462 , 4018.97435897 , 3867.17948718 , 4241.53846154 , 4194.87179487 , 4493.84615385 , 4496.41025641 , 1719.0 , 1691.0 , 8.389 , 0.0 , 0.0 , 0.0 , 0.0 , 

56.0 , 4422.56410256 , 4611.28205128 , 4466.15384615 , 4208.20512821 , 4575.38461538 , 4578.97435897 , 4553.84615385 , 4285.64102564 , 4022.05128205 , 3867.69230769 , 4246.15384615 , 4200.0 , 4497.43589744 , 4499.48717949 , 1720.0 , 1693.0 , 8.397 , 0.0 , 0.0 , 0.0 , 0.0 , 

57.0 , 4421.53846154 , 4613.84615385 , 4465.64102564 , 4209.74358974 , 4575.38461538 , 4582.56410256 , 4553.84615385 , 4283.07692308 , 4021.02564103 , 3868.20512821 , 4246.15384615 , 4198.97435897 , 4500.0 , 4496.92307692 , 1720.0 , 1691.0 , 8.404 , 0.0 , 0.0 , 0.0 , 0.0 , 

58.0 , 4421.02564103 , 4612.30769231 , 4464.61538462 , 4209.23076923 , 4574.35897436 , 4582.56410256 , 4552.82051282 , 4290.76923077 , 4027.17948718 , 3872.30769231 , 4246.66666667 , 4202.05128205 , 4503.58974359 , 4498.46153846 , 1719.0 , 1693.0 , 8.412 , 0.0 , 0.0 , 0.0 , 0.0 , 

59.0 , 4422.56410256 , 4611.79487179 , 4465.64102564 , 4208.71794872 , 4576.92307692 , 4581.53846154 , 4553.33333333 , 4295.8974359 , 4026.66666667 , 3872.30769231 , 4247.69230769 , 4202.56410256 , 4501.53846154 , 4500.51282051 , 1721.0 , 1693.0 , 8.42 , 0.0 , 0.0 , 0.0 , 0.0 , 

60.0 , 4423.58974359 , 4612.82051282 , 4468.20512821 , 4210.25641026 , 4577.43589744 , 4581.53846154 , 4553.33333333 , 4294.87179487 , 4022.56410256 , 3869.74358974 , 4249.74358974 , 4203.07692308 , 4498.46153846 , 4500.51282051 , 1720.0 , 1692.0 , 8.428 , 0.0 , 0.0 , 0.0 , 0.0 , 

61.0 , 4420.51282051 , 4613.33333333 , 4467.17948718 , 4209.74358974 , 4573.84615385 , 4580.0 , 4553.33333333 , 4288.71794872 , 4018.97435897 , 3868.20512821 , 4244.1025641 , 4200.0 , 4495.8974359 , 4496.41025641 , 1720.0 , 1693.0 , 8.436 , 0.0 , 0.0 , 0.0 , 0.0 , 

62.0 , 4419.48717949 , 4611.79487179 , 4464.61538462 , 4208.20512821 , 4573.33333333 , 4578.46153846 , 4552.82051282 , 4284.61538462 , 4017.43589744 , 3868.71794872 , 4239.48717949 , 4198.97435897 , 4494.35897436 , 4495.8974359 , 1720.0 , 1692.0 , 8.444 , 0.0 , 0.0 , 0.0 , 0.0 , 

63.0 , 4422.56410256 , 4612.30769231 , 4464.1025641 , 4208.71794872 , 4575.8974359 , 4580.51282051 , 4553.33333333 , 4286.15384615 , 4018.46153846 , 3869.23076923 , 4241.02564103 , 4200.0 , 4496.92307692 , 4497.94871795 , 1720.0 , 1693.0 , 8.451 , 0.0 , 0.0 , 0.0 , 0.0 , 

