Counter	AF3	F7	F3	FC5	T7	P7	O1	O2	P8	T8	FC6	F4	F8	AF4	GyroX	GyroY	Timestamp	FUNC_ID	FUNC_VALUE	MARKER	SYNC_SIGNAL	CMS_Q	DRL_Q	AF3_Q	F7_Q	F3_Q	FC5_Q	T7_Q	P7_Q	O1_Q	O2_Q	P8_Q	T8_Q	FC6_Q	F4_Q	F8_Q	AF4_Q	Blink	LeftWink	RightWink	EyesOpen	LeftEyeLid	RightEyelid
98.000000	4308.717949	4342.051282	4393.846154	3730.256410	4365.128205	4583.589744	4631.282051	4523.589744	4031.282051	4106.666667	4498.974359	4435.897436	4242.564103	3975.897436	1739.000000	1678.000000	35.739000	0.000000	0.000000	0.000000	0.000000	1	1	0	0	0	0	0	0	0	0	0	0	0	0	0	0	0	0	0	1	0.000	0.000
99.000000	4313.333333	4348.205128	4391.794872	3731.282051	4366.153846	4580.512821	4630.256410	4522.564103	4032.820513	4110.256410	4498.461538	4433.333333	4244.102564	3978.461538	1738.000000	1678.000000	35.746000	0.000000	0.000000	0.000000	0.000000	1	1	0	0	0	0	0	0	0	0	0	0	0	0	0	0	0	0	0	1	0.000	0.000
100.000000	4308.205128	4343.589744	4393.333333	3734.358974	4367.692308	4585.128205	4629.743590	4524.102564	4026.153846	4106.153846	4497.948718	4434.358974	4239.487179	3975.384615	1740.000000	1676.000000	35.755000	0.000000	0.000000	0.000000	0.000000	1	1	0	0	0	0	0	0	0	0	0	0	0	0	0	0	0	0	0	1	0.000	0.000
101.000000	4313.333333	4350.256410	4392.820513	3733.333333	4364.102564	4584.102564	4628.205128	4521.538462	4024.102564	4104.102564	4498.974359	4433.333333	4245.641026	3977.435897	1739.000000	1678.000000	35.763000	0.000000	0.000000	0.000000	0.000000	1	1	0	0	0	0	0	0	0	0	0	0	0	0	0	0	0	0	0	1	0.000	0.000
102.000000	4309.743590	4345.128205	4394.358974	3732.307692	4363.589744	4583.076923	4632.307692	4521.538462	4027.179487	4108.205128	4497.948718	4434.871795	4242.564103	3977.948718	1740.000000	1678.000000	35.770000	0.000000	0.000000	0.000000	0.000000	1	1	0	0	0	0	0	0	0	0	0	0	0	0	0	0	0	0	0	1	0.000	0.000
103.000000	4308.205128	4345.128205	4391.282051	3732.820513	4367.692308	4583.589744	4632.307692	4523.076923	4026.153846	4107.179487	4495.897436	4431.282051	4244.615385	3977.948718	1739.000000	1678.000000	35.778000	0.000000	0.000000	0.000000	0.000000	1	1	0	0	0	0	0	0	0	0	0	0	0	0	0	0	0	0	0	1	0.000	0.000
104.000000	4307.179487	4347.179487	4392.820513	3731.282051	4367.692308	4584.615385	4629.230769	4518.461538	4023.589744	4100.512821	4498.461538	4431.282051	4246.666667	3976.410256	1739.000000	1679.000000	35.786000	0.000000	0.000000	0.000000	0.000000	1	1	0	0	0	0	0	0	0	0	0	0	0	0	0	0	0	0	0	1	0.000	0.000
105.000000	4309.743590	4348.717949	4396.923077	3729.743590	4363.076923	4584.615385	4628.205128	4516.410256	4023.589744	4100.512821	4500.512821	4437.435897	4246.666667	3976.923077	1739.000000	1677.000000	35.794000	0.000000	0.000000	0.000000	0.000000	1	1	0	0	0	0	0	0	0	0	0	0	0	0	0	0	0	0	0	1	0.000	0.000
106.000000	4310.769231	4348.717949	4393.846154	3731.794872	4362.051282	4584.615385	4629.230769	4518.461538	4024.102564	4106.153846	4498.974359	4437.435897	4252.820513	3977.435897	1739.000000	1678.000000	35.802000	0.000000	0.000000	0.000000	0.000000	1	1	0	0	0	0	0	0	0	0	0	0	0	0	0	0	0	0	0	1	0.000	0.000
107.000000	4307.179487	4345.128205	4392.820513	3733.333333	4364.615385	4584.615385	4631.794872	4513.333333	4020.512821	4102.564103	4497.435897	4430.256410	4250.769231	3975.897436	1740.000000	1677.000000	35.810000	0.000000	0.000000	0.000000	0.000000	1	1	0	0	0	0	0	0	0	0	0	0	0	0	0	0	0	0	0	1	0.000	0.000
108.000000	4311.282051	4348.717949	4393.333333	3732.820513	4365.641026	4584.615385	4632.307692	4509.743590	4022.564103	4101.025641	4497.435897	4426.666667	4250.256410	3977.435897	1739.000000	1678.000000	35.817000	0.000000	0.000000	0.000000	0.000000	1	1	0	0	0	0	0	0	0	0	0	0	0	0	0	0	0	0	0	1	0.000	0.000
109.000000	4307.179487	4344.615385	4396.410256	3733.846154	4365.128205	4586.153846	4631.794872	4513.846154	4025.128205	4102.564103	4495.897436	4432.820513	4244.102564	3975.897436	1739.000000	1678.000000	35.825000	0.000000	0.000000	0.000000	0.000000	1	1	0	0	0	0	0	0	0	0	0	0	0	0	0	0	0	0	0	1	0.000	0.000
110.000000	4315.897436	4351.282051	4392.820513	3734.871795	4363.076923	4584.615385	4625.641026	4517.948718	4025.641026	4106.153846	4497.948718	4430.256410	4252.820513	3975.384615	1739.000000	1677.000000	35.833000	0.000000	0.000000	0.000000	0.000000	1	1	0	0	0	0	0	0	0	0	0	0	0	0	0	0	0	0	0	1	0.000	0.000
111.000000	4310.256410	4344.615385	4393.846154	3732.820513	4362.564103	4584.102564	4630.256410	4514.358974	4022.051282	4103.589744	4498.461538	4429.743590	4242.051282	3968.717949	1740.000000	1677.000000	35.841000	0.000000	0.000000	0.000000	0.000000	1	1	0	0	0	0	0	0	0	0	0	0	0	0	0	0	0	0	0	1	0.000	0.000
112.000000	4312.820513	4353.333333	4392.820513	3730.256410	4363.589744	4583.589744	4630.769231	4521.025641	4027.179487	4107.179487	4497.435897	4434.358974	4250.256410	3975.384615	1739.000000	1678.000000	35.849000	0.000000	0.000000	0.000000	0.000000	1	1	0	0	0	0	0	0	0	0	0	0	0	0	0	0	0	0	0	1	0.000	0.000
113.000000	4304.615385	4347.692308	4396.410256	3733.846154	4366.666667	4584.102564	4629.743590	4524.102564	4027.692308	4107.179487	4496.410256	4437.948718	4247.692308	3976.923077	1739.000000	1678.000000	35.857000	0.000000	0.000000	0.000000	0.000000	1	1	0	0	0	0	0	0	0	0	0	0	0	0	0	0	0	0	0	1	0.000	0.000
114.000000	4311.282051	4353.846154	4393.333333	3735.384615	4366.666667	4582.051282	4626.666667	4521.025641	4024.615385	4105.641026	4497.435897	4432.307692	4254.871795	3978.461538	1738.000000	1678.000000	35.864000	0.000000	0.000000	0.000000	0.000000	1	1	0	0	0	0	0	0	0	0	0	0	0	0	0	0	0	0	0	1	0.000	0.000
115.000000	4307.179487	4344.102564	4396.923077	3732.820513	4364.615385	4586.153846	4631.282051	4518.461538	4026.153846	4105.641026	4498.461538	4431.794872	4245.641026	3974.358974	1739.000000	1677.000000	35.872000	0.000000	0.000000	0.000000	0.000000	1	1	0	0	0	0	0	0	0	0	0	0	0	0	0	0	0	0	0	1	0.000	0.000
116.000000	4313.846154	4348.205128	4397.435897	3730.769231	4363.076923	4584.102564	4630.256410	4521.538462	4027.692308	4108.205128	4499.487179	4432.820513	4253.846154	3977.435897	1739.000000	1678.000000	35.878000	0.000000	0.000000	0.000000	0.000000	1	1	0	0	0	0	0	0	0	0	0	0	0	0	0	0	0	0	0	1	0.000	0.000
117.000000	4309.230769	4343.589744	4395.897436	3732.820513	4364.102564	4582.564103	4630.769231	4523.076923	4027.179487	4106.666667	4497.435897	4435.384615	4250.769231	3977.435897	1739.000000	1677.000000	35.886000	0.000000	0.000000	0.000000	0.000000	1	1	0	0	0	0	0	0	0	0	0	0	0	0	0	0	0	0	0	1	0.000	0.000
118.000000	4310.256410	4349.230769	4390.769231	3732.820513	4363.589744	4583.589744	4630.256410	4517.435897	4026.153846	4105.641026	4493.846154	4434.358974	4249.230769	3976.923077	1739.000000	1678.000000	35.894000	0.000000	0.000000	0.000000	0.000000	1	1	0	0	0	0	0	0	0	0	0	0	0	0	0	0	0	0	0	1	0.000	0.000
119.000000	4309.743590	4347.692308	4392.307692	3732.307692	4363.589744	4585.641026	4631.282051	4520.000000	4025.641026	4108.717949	4497.435897	4434.871795	4247.179487	3975.384615	1740.000000	1677.000000	35.901000	0.000000	0.000000	0.000000	0.000000	1	1	0	0	0	0	0	0	0	0	0	0	0	0	0	0	0	0	0	1	0.000	0.000
120.000000	4312.307692	4346.153846	4392.307692	3732.307692	4364.615385	4583.076923	4629.743590	4522.564103	4023.589744	4110.256410	4501.025641	4433.333333	4247.179487	3977.435897	1738.000000	1678.000000	35.909000	0.000000	0.000000	0.000000	0.000000	1	1	0	0	0	0	0	0	0	0	0	0	0	0	0	0	0	0	0	1	0.000	0.000
121.000000	4311.282051	4344.102564	4391.794872	3731.282051	4365.641026	4583.589744	4628.717949	4518.461538	4024.102564	4107.179487	4498.974359	4432.307692	4245.128205	3976.410256	1740.000000	1677.000000	35.917000	0.000000	0.000000	0.000000	0.000000	1	1	0	0	0	0	0	0	0	0	0	0	0	0	0	0	0	0	0	1	0.000	0.000
122.000000	4308.717949	4346.153846	4394.871795	3730.256410	4363.589744	4583.076923	4629.743590	4517.948718	4027.179487	4105.128205	4498.974359	4433.333333	4242.564103	3975.384615	1739.000000	1677.000000	35.925000	0.000000	0.000000	0.000000	0.000000	1	1	0	0	0	0	0	0	0	0	0	0	0	0	0	0	0	0	0	1	0.000	0.000
123.000000	4310.256410	4349.743590	4394.871795	3733.333333	4364.102564	4580.000000	4628.205128	4521.538462	4029.743590	4105.128205	4501.538462	4432.820513	4246.666667	3978.974359	1740.000000	1679.000000	35.933000	0.000000	0.000000	0.000000	0.000000	1	1	0	0	0	0	0	0	0	0	0	0	0	0	0	0	0	0	0	1	0.000	0.000
124.000000	4308.205128	4343.076923	4394.358974	3734.871795	4366.153846	4583.076923	4627.179487	4517.948718	4025.128205	4103.076923	4500.000000	4433.333333	4240.000000	3976.410256	1740.000000	1677.000000	35.940000	0.000000	0.000000	0.000000	0.000000	1	1	0	0	0	0	0	0	0	0	0	0	0	0	0	0	0	0	0	1	0.000	0.000
125.000000	4313.846154	4347.692308	4392.307692	3733.846154	4364.102564	4584.102564	4629.230769	4514.358974	4023.076923	4101.538462	4498.461538	4433.333333	4244.615385	3976.923077	1740.000000	1678.000000	35.948000	0.000000	0.000000	0.000000	0.000000	1	1	0	0	0	0	0	0	0	0	0	0	0	0	0	0	0	0	0	1	0.000	0.000
126.000000	4306.153846	4345.641026	4395.384615	3732.820513	4363.589744	4581.538462	4632.307692	4518.974359	4022.051282	4099.487179	4498.461538	4435.384615	4239.487179	3981.538462	1740.000000	1677.000000	35.956000	0.000000	0.000000	0.000000	0.000000	1	1	0	0	0	0	0	0	0	0	0	0	0	0	0	0	0	0	0	1	0.000	0.000
127.000000	4311.282051	4351.282051	4394.358974	3732.820513	4368.205128	4577.948718	4626.666667	4523.076923	4024.615385	4103.076923	4498.974359	4431.282051	4248.717949	3985.128205	1739.000000	1678.000000	35.964000	0.000000	0.000000	0.000000	0.000000	1	1	0	0	0	0	0	0	0	0	0	0	0	0	0	0	0	0	0	1	0.000	0.000
128.000000	4307.692308	4342.051282	4397.435897	3732.307692	4369.743590	4582.564103	4628.717949	4515.897436	4022.564103	4103.076923	4498.974359	4429.743590	4242.564103	3973.846154	1740.000000	1678.000000	35.974000	0.000000	0.000000	0.000000	0.000000	1	1	0	0	0	0	0	0	0	0	0	0	0	0	0	0	0	0	0	1	0.000	0.000
0.000000	4313.846154	4350.256410	4393.333333	3732.307692	4365.641026	4583.076923	4630.769231	4515.384615	4023.076923	4106.153846	4497.435897	4429.743590	4250.769231	3975.384615	1739.000000	1678.000000	35.982000	0.000000	0.000000	0.000000	0.000000	1	1	0	0	0	0	0	0	0	0	0	0	0	0	0	0	0	0	0	1	0.000	0.000
1.000000	4307.692308	4346.153846	4397.435897	3734.871795	4366.666667	4583.076923	4633.333333	4518.461538	4025.128205	4103.589744	4495.384615	4433.846154	4248.205128	3977.948718	1740.000000	1678.000000	35.989000	0.000000	0.000000	0.000000	0.000000	1	1	0	0	0	0	0	0	0	0	0	0	0	0	0	0	0	0	0	1	0.000	0.000
2.000000	4311.794872	4352.820513	4395.384615	3735.384615	4368.717949	4582.051282	4627.692308	4521.538462	4029.743590	4106.153846	4496.923077	4432.307692	4255.897436	3981.025641	1739.000000	1678.000000	35.997000	0.000000	0.000000	0.000000	0.000000	1	1	0	0	0	0	0	0	0	0	0	0	0	0	0	0	0	0	0	1	0.000	0.000
3.000000	4305.641026	4344.102564	4392.820513	3733.846154	4367.179487	4584.102564	4629.230769	4520.512821	4028.717949	4107.179487	4498.974359	4432.307692	4246.666667	3974.871795	1739.000000	1677.000000	36.005000	0.000000	0.000000	0.000000	0.000000	1	1	0	0	0	0	0	0	0	0	0	0	0	0	0	0	0	0	0	1	0.000	0.000
4.000000	4311.794872	4350.769231	4390.256410	3732.820513	4363.589744	4583.076923	4630.769231	4520.000000	4026.666667	4104.102564	4497.948718	4432.820513	4251.282051	3975.384615	1739.000000	1678.000000	36.013000	0.000000	0.000000	0.000000	0.000000	1	1	0	0	0	0	0	0	0	0	0	0	0	0	0	0	0	0	0	1	0.000	0.000
5.000000	4311.282051	4349.230769	4395.897436	3733.846154	4365.641026	4584.615385	4632.820513	4521.538462	4028.717949	4103.589744	4497.948718	4433.846154	4250.769231	3975.897436	1739.000000	1679.000000	36.021000	0.000000	0.000000	0.000000	0.000000	1	1	0	0	0	0	0	0	0	0	0	0	0	0	0	0	0	0	0	1	0.000	0.000
6.000000	4312.307692	4351.794872	4394.358974	3732.820513	4366.666667	4584.102564	4629.743590	4517.948718	4026.666667	4104.615385	4499.487179	4429.743590	4254.871795	3977.435897	1739.000000	1677.000000	36.028000	0.000000	0.000000	0.000000	0.000000	1	1	0	0	0	0	0	0	0	0	0	0	0	0	0	0	0	0	0	1	0.000	0.000
7.000000	4308.205128	4349.743590	4392.820513	3732.820513	4365.128205	4582.564103	4627.692308	4517.435897	4023.076923	4103.589744	4498.974359	4430.256410	4251.794872	3975.384615	1739.000000	1678.000000	36.036000	0.000000	0.000000	0.000000	0.000000	1	1	0	0	0	0	0	0	0	0	0	0	0	0	0	0	0	0	0	1	0.000	0.000
8.000000	4309.743590	4348.717949	4393.333333	3732.307692	4364.615385	4582.564103	4629.230769	4518.974359	4024.615385	4102.564103	4496.923077	4431.794872	4248.717949	3974.871795	1741.000000	1677.000000	36.044000	0.000000	0.000000	0.000000	0.000000	1	1	0	0	0	0	0	0	0	0	0	0	0	0	0	0	0	0	0	1	0.000	0.000
9.000000	4313.333333	4347.692308	4393.333333	3731.282051	4365.641026	4583.589744	4629.743590	4520.000000	4025.641026	4104.615385	4498.974359	4431.794872	4250.769231	3975.897436	1738.000000	1678.000000	36.052000	0.000000	0.000000	0.000000	0.000000	1	1	0	0	0	0	0	0	0	0	0	0	0	0	0	0	0	0	0	1	0.000	0.000
10.000000	4309.230769	4345.641026	4394.871795	3732.820513	4366.666667	4583.076923	4628.717949	4518.974359	4023.589744	4105.641026	4500.000000	4432.820513	4247.179487	3973.333333	1740.000000	1678.000000	36.058000	0.000000	0.000000	0.000000	0.000000	1	1	0	0	0	0	0	0	0	0	0	0	0	0	0	0	0	0	0	1	0.000	0.000
11.000000	4311.282051	4348.205128	4393.333333	3733.846154	4365.641026	4582.564103	4628.205128	4521.025641	4026.153846	4107.692308	4498.974359	4433.846154	4250.256410	3972.820513	1739.000000	1678.000000	36.066000	0.000000	0.000000	0.000000	0.000000	1	1	0	0	0	0	0	0	0	0	0	0	0	0	0	0	0	0	0	1	0.000	0.000
12.000000	4306.666667	4341.025641	4393.333333	3731.794872	4364.615385	4585.128205	4632.820513	4524.615385	4028.717949	4108.205128	4498.461538	4435.897436	4242.564103	3972.820513	1739.000000	1678.000000	36.073000	0.000000	0.000000	0.000000	0.000000	1	1	0	0	0	0	0	0	0	0	0	0	0	0	0	0	0	0	0	1	0.000	0.000
13.000000	4310.769231	4347.179487	4391.794872	3733.846154	4363.076923	4584.102564	4628.717949	4524.615385	4027.179487	4108.205128	4499.487179	4432.820513	4247.179487	3975.897436	1739.000000	1678.000000	36.081000	0.000000	0.000000	0.000000	0.000000	1	1	0	0	0	0	0	0	0	0	0	0	0	0	0	0	0	0	0	1	0.000	0.000
14.000000	4305.641026	4344.102564	4395.897436	3736.923077	4366.153846	4583.589744	4629.230769	4521.538462	4025.128205	4106.153846	4497.948718	4433.333333	4237.948718	3975.897436	1740.000000	1678.000000	36.091000	0.000000	0.000000	0.000000	0.000000	1	1	0	0	0	0	0	0	0	0	0	0	0	0	0	0	0	0	0	1	0.000	0.000
15.000000	4312.307692	4350.256410	4395.897436	3734.871795	4366.666667	4583.589744	4630.769231	4523.076923	4029.743590	4107.692308	4498.461538	4433.333333	4245.641026	3981.025641	1739.000000	1677.000000	36.099000	0.000000	0.000000	0.000000	0.000000	1	1	0	0	0	0	0	0	0	0	0	0	0	0	0	0	0	0	0	1	0.000	0.000
16.000000	4307.179487	4343.076923	4395.384615	3731.794872	4364.615385	4585.128205	4631.282051	4523.076923	4027.179487	4103.589744	4499.487179	4434.871795	4239.487179	3978.461538	1739.000000	1678.000000	36.107000	0.000000	0.000000	0.000000	0.000000	1	1	0	0	0	0	0	0	0	0	0	0	0	0	0	0	0	0	0	1	0.000	0.000
17.000000	4313.333333	4352.307692	4390.769231	3731.794872	4364.615385	4583.589744	4626.666667	4518.974359	4024.102564	4103.589744	4500.000000	4432.820513	4246.666667	3980.000000	1740.000000	1677.000000	36.115000	0.000000	0.000000	0.000000	0.000000	1	1	0	0	0	0	0	0	0	0	0	0	0	0	0	0	0	0	0	1	0.000	0.000
18.000000	4305.641026	4346.153846	4395.897436	3733.333333	4367.692308	4585.128205	4631.794872	4516.923077	4025.128205	4105.128205	4498.974359	4434.871795	4240.512821	3977.435897	1739.000000	1679.000000	36.121000	0.000000	0.000000	0.000000	0.000000	1	1	0	0	0	0	0	0	0	0	0	0	0	0	0	0	0	0	0	1	0.000	0.000
19.000000	4309.230769	4350.769231	4395.384615	3732.307692	4366.666667	4583.076923	4630.256410	4522.051282	4029.230769	4106.666667	4497.948718	4432.307692	4248.717949	3978.974359	1740.000000	1678.000000	36.129000	0.000000	0.000000	0.000000	0.000000	1	1	0	0	0	0	0	0	0	0	0	0	0	0	0	0	0	0	0	1	0.000	0.000
20.000000	4306.153846	4344.615385	4392.820513	3732.820513	4364.615385	4583.589744	4628.205128	4523.076923	4026.153846	4104.615385	4497.435897	4433.333333	4248.205128	3978.461538	1738.000000	1677.000000	36.137000	0.000000	0.000000	0.000000	0.000000	1	1	0	0	0	0	0	0	0	0	0	0	0	0	0	0	0	0	0	1	0.000	0.000
21.000000	4311.794872	4348.717949	4390.256410	3734.871795	4365.641026	4585.641026	4629.230769	4518.461538	4023.076923	4106.153846	4498.461538	4432.820513	4253.846154	3979.487179	1740.000000	1678.000000	36.145000	0.000000	0.000000	0.000000	0.000000	1	1	0	0	0	0	0	0	0	0	0	0	0	0	0	0	0	0	0	1	0.000	0.000
22.000000	4307.179487	4345.641026	4397.948718	3734.358974	4367.692308	4586.153846	4631.282051	4518.461538	4028.717949	4107.692308	4498.974359	4433.333333	4250.256410	3977.435897	1738.000000	1677.000000	36.153000	0.000000	0.000000	0.000000	0.000000	1	1	0	0	0	0	0	0	0	0	0	0	0	0	0	0	0	0	0	1	0.000	0.000
23.000000	4308.717949	4347.179487	4396.923077	3732.307692	4366.666667	4582.564103	4627.179487	4520.512821	4029.230769	4104.615385	4498.974359	4431.794872	4251.282051	3977.948718	1739.000000	1679.000000	36.160000	0.000000	0.000000	0.000000	0.000000	1	1	0	0	0	0	0	0	0	0	0	0	0	0	0	0	0	0	0	1	0.000	0.000
24.000000	4309.230769	4344.615385	4390.769231	3733.846154	4366.666667	4583.589744	4627.179487	4518.461538	4022.051282	4101.025641	4498.461538	4431.794872	4250.769231	3975.384615	1739.000000	1677.000000	36.168000	0.000000	0.000000	0.000000	0.000000	1	1	0	0	0	0	0	0	0	0	0	0	0	0	0	0	0	0	0	1	0.000	0.000
25.000000	4308.205128	4345.128205	4391.794872	3733.846154	4365.128205	4585.641026	4629.230769	4515.384615	4020.000000	4104.102564	4497.435897	4433.333333	4249.743590	3973.846154	1739.000000	1678.000000	36.177000	0.000000	0.000000	0.000000	0.000000	1	1	0	0	0	0	0	0	0	0	0	0	0	0	0	0	0	0	0	1	0.000	0.000
26.000000	4310.256410	4350.256410	4393.846154	3732.820513	4365.641026	4582.051282	4627.692308	4517.435897	4026.153846	4108.717949	4495.384615	4430.769231	4253.333333	3973.846154	1739.000000	1677.000000	36.185000	0.000000	0.000000	0.000000	0.000000	1	1	0	0	0	0	0	0	0	0	0	0	0	0	0	0	0	0	0	1	0.000	0.000
27.000000	4308.717949	4347.179487	4394.358974	3733.846154	4368.717949	4579.487179	4630.256410	4516.923077	4024.102564	4104.102564	4495.897436	4431.794872	4248.205128	3971.282051	1740.000000	1679.000000	36.193000	0.000000	0.000000	0.000000	0.000000	1	1	0	0	0	0	0	0	0	0	0	0	0	0	0	0	0	0	0	1	0.000	0.000
28.000000	4313.846154	4350.256410	4393.846154	3733.846154	4367.692308	4582.051282	4630.256410	4518.461538	4022.564103	4104.615385	4496.923077	4433.333333	4252.307692	3973.333333	1740.000000	1677.000000	36.201000	0.000000	0.000000	0.000000	0.000000	1	1	0	0	0	0	0	0	0	0	0	0	0	0	0	0	0	0	0	1	0.000	0.000
29.000000	4307.179487	4346.153846	4396.923077	3731.282051	4364.615385	4584.615385	4630.256410	4520.000000	4026.153846	4110.256410	4495.897436	4431.794872	4246.153846	3974.358974	1738.000000	1679.000000	36.208000	0.000000	0.000000	0.000000	0.000000	1	1	0	0	0	0	0	0	0	0	0	0	0	0	0	0	0	0	0	1	0.000	0.000
30.000000	4311.794872	4353.333333	4392.307692	3731.794872	4363.589744	4583.589744	4627.692308	4523.076923	4028.717949	4110.769231	4496.923077	4429.743590	4252.307692	3975.897436	1740.000000	1677.000000	36.216000	0.000000	0.000000	0.000000	0.000000	1	1	0	0	0	0	0	0	0	0	0	0	0	0	0	0	0	0	0	1	0.000	0.000
31.000000	4308.205128	4342.564103	4392.820513	3732.820513	4366.666667	4585.128205	4630.769231	4523.589744	4024.615385	4103.589744	4496.923077	4432.820513	4243.076923	3972.820513	1738.000000	1677.000000	36.224000	0.000000	0.000000	0.000000	0.000000	1	1	0	0	0	0	0	0	0	0	0	0	0	0	0	0	0	0	0	1	0.000	0.000
32.000000	4313.846154	4348.205128	4392.820513	3731.794872	4365.128205	4583.589744	4628.717949	4523.589744	4027.692308	4109.230769	4498.461538	4431.794872	4252.307692	3978.461538	1740.000000	1678.000000	36.232000	0.000000	0.000000	0.000000	0.000000	1	1	0	0	0	0	0	0	0	0	0	0	0	0	0	0	0	0	0	1	0.000	0.000
33.000000	4307.179487	4343.076923	4394.871795	3730.256410	4363.076923	4585.641026	4629.743590	4520.512821	4030.769231	4112.307692	4500.000000	4434.358974	4245.641026	3976.410256	1739.000000	1678.000000	36.239000	0.000000	0.000000	0.000000	0.000000	1	1	0	0	0	0	0	0	0	0	0	0	0	0	0	0	0	0	0	1	0.000	0.000
34.000000	4312.820513	4349.743590	4391.794872	3731.282051	4364.615385	4586.666667	4627.692308	4521.538462	4029.743590	4106.666667	4500.000000	4433.333333	4250.256410	3980.000000	1739.000000	1679.000000	36.246000	0.000000	0.000000	0.000000	0.000000	1	1	0	0	0	0	0	0	0	0	0	0	0	0	0	0	0	0	0	1	0.000	0.000
35.000000	4307.179487	4341.538462	4395.897436	3732.307692	4366.666667	4584.615385	4629.743590	4523.076923	4029.230769	4104.102564	4498.461538	4433.333333	4242.051282	3978.461538	1739.000000	1678.000000	36.254000	0.000000	0.000000	0.000000	0.000000	1	1	0	0	0	0	0	0	0	0	0	0	0	0	0	0	0	0	0	1	0.000	0.000
36.000000	4312.307692	4346.666667	4396.410256	3731.794872	4364.615385	4580.000000	4629.230769	4522.051282	4030.256410	4108.205128	4498.461538	4431.794872	4244.102564	3977.948718	1739.000000	1678.000000	36.263000	0.000000	0.000000	0.000000	0.000000	1	1	0	0	0	0	0	0	0	0	0	0	0	0	0	0	0	0	0	1	0.000	0.000
37.000000	4310.256410	4343.076923	4396.923077	3732.820513	4364.615385	4582.564103	4629.230769	4521.538462	4027.692308	4107.179487	4498.461538	4433.333333	4242.051282	3975.897436	1740.000000	1677.000000	36.271000	0.000000	0.000000	0.000000	0.000000	1	1	0	0	0	0	0	0	0	0	0	0	0	0	0	0	0	0	0	1	0.000	0.000
38.000000	4312.820513	4348.717949	4393.846154	3731.794872	4365.641026	4582.051282	4628.717949	4518.974359	4025.641026	4105.128205	4497.948718	4431.282051	4246.666667	3977.948718	1739.000000	1678.000000	36.278000	0.000000	0.000000	0.000000	0.000000	1	1	0	0	0	0	0	0	0	0	0	0	0	0	0	0	0	0	0	1	0.000	0.000
39.000000	4307.179487	4347.179487	4394.871795	3731.794872	4366.666667	4582.051282	4630.256410	4517.948718	4024.615385	4105.641026	4499.487179	4434.358974	4242.564103	3976.923077	1740.000000	1678.000000	36.286000	0.000000	0.000000	0.000000	0.000000	1	1	0	0	0	0	0	0	0	0	0	0	0	0	0	0	0	0	0	1	0.000	0.000
40.000000	4309.743590	4347.179487	4396.923077	3732.307692	4366.153846	4583.076923	4629.743590	4519.487179	4024.615385	4106.666667	4500.000000	4435.897436	4242.051282	3977.948718	1740.000000	1678.000000	36.294000	0.000000	0.000000	0.000000	0.000000	1	1	0	0	0	0	0	0	0	0	0	0	0	0	0	0	0	0	0	1	0.000	0.000
41.000000	4312.307692	4346.666667	4395.897436	3730.769231	4366.153846	4582.564103	4628.205128	4518.461538	4025.641026	4104.615385	4499.487179	4431.794872	4246.666667	3977.435897	1739.000000	1677.000000	36.301000	0.000000	0.000000	0.000000	0.000000	1	1	0	0	0	0	0	0	0	0	0	0	0	0	0	0	0	0	0	1	0.000	0.000
42.000000	4307.179487	4345.641026	4392.820513	3730.256410	4364.615385	4581.025641	4629.743590	4514.358974	4023.076923	4101.538462	4498.974359	4431.794872	4245.128205	3976.410256	1740.000000	1678.000000	36.309000	0.000000	0.000000	0.000000	0.000000	1	1	0	0	0	0	0	0	0	0	0	0	0	0	0	0	0	0	0	1	0.000	0.000
43.000000	4309.230769	4348.717949	4392.307692	3733.333333	4362.564103	4581.538462	4628.205128	4512.307692	4019.487179	4103.076923	4497.948718	4433.846154	4248.205128	3978.461538	1739.000000	1677.000000	36.317000	0.000000	0.000000	0.000000	0.000000	1	1	0	0	0	0	0	0	0	0	0	0	0	0	0	0	0	0	0	1	0.000	0.000
44.000000	4308.205128	4344.102564	4396.923077	3732.820513	4365.641026	4583.589744	4627.692308	4511.794872	4020.000000	4101.538462	4497.435897	4433.333333	4244.615385	3977.435897	1739.000000	1678.000000	36.325000	0.000000	0.000000	0.000000	0.000000	1	1	0	0	0	0	0	0	0	0	0	0	0	0	0	0	0	0	0	1	0.000	0.000
45.000000	4312.820513	4348.717949	4393.846154	3731.282051	4366.153846	4583.589744	4628.205128	4512.307692	4024.102564	4101.025641	4498.974359	4427.692308	4250.256410	3977.948718	1739.000000	1678.000000	36.332000	0.000000	0.000000	0.000000	0.000000	1	1	0	0	0	0	0	0	0	0	0	0	0	0	0	0	0	0	0	1	0.000	0.000
46.000000	4306.666667	4344.615385	4394.871795	3733.846154	4364.615385	4585.128205	4631.794872	4512.820513	4021.025641	4100.000000	4500.000000	4429.230769	4244.102564	3975.897436	1740.000000	1678.000000	36.340000	0.000000	0.000000	0.000000	0.000000	1	1	0	0	0	0	0	0	0	0	0	0	0	0	0	0	0	0	0	1	0.000	0.000
47.000000	4314.358974	4352.820513	4393.846154	3733.846154	4365.641026	4584.102564	4629.230769	4519.487179	4023.076923	4106.153846	4500.512821	4433.333333	4251.282051	3976.923077	1739.000000	1677.000000	36.349000	0.000000	0.000000	0.000000	0.000000	1	1	0	0	0	0	0	0	0	0	0	0	0	0	0	0	0	0	0	1	0.000	0.000
48.000000	4309.230769	4344.615385	4394.871795	3731.282051	4367.692308	4584.615385	4632.820513	4519.487179	4025.128205	4105.641026	4496.410256	4434.358974	4243.076923	3970.769231	1738.000000	1678.000000	36.356000	0.000000	0.000000	0.000000	0.000000	1	1	0	0	0	0	0	0	0	0	0	0	0	0	0	0	0	0	0	1	0.000	0.000
49.000000	4312.820513	4351.282051	4391.794872	3732.307692	4362.051282	4584.102564	4631.794872	4519.487179	4026.666667	4105.128205	4496.410256	4432.307692	4251.282051	3974.871795	1741.000000	1677.000000	36.364000	0.000000	0.000000	0.000000	0.000000	1	1	0	0	0	0	0	0	0	0	0	0	0	0	0	0	0	0	0	1	0.000	0.000
50.000000	4306.153846	4345.641026	4394.871795	3732.820513	4360.512821	4586.666667	4630.769231	4522.051282	4025.641026	4105.128205	4498.974359	4435.384615	4244.615385	3976.410256	1738.000000	1678.000000	36.372000	0.000000	0.000000	0.000000	0.000000	1	1	0	0	0	0	0	0	0	0	0	0	0	0	0	0	0	0	0	1	0.000	0.000
51.000000	4314.358974	4353.333333	4393.333333	3731.794872	4363.076923	4583.589744	4627.179487	4523.589744	4028.717949	4106.666667	4500.000000	4434.358974	4253.333333	3979.487179	1740.000000	1678.000000	36.379000	0.000000	0.000000	0.000000	0.000000	1	1	0	0	0	0	0	0	0	0	0	0	0	0	0	0	0	0	0	1	0.000	0.000
52.000000	4311.282051	4347.179487	4397.948718	3734.358974	4364.102564	4582.564103	4630.256410	4519.487179	4028.205128	4104.615385	4498.974359	4435.384615	4251.794872	3974.871795	1739.000000	1677.000000	36.387000	0.000000	0.000000	0.000000	0.000000	1	1	0	0	0	0	0	0	0	0	0	0	0	0	0	0	0	0	0	1	0.000	0.000
53.000000	4313.846154	4349.230769	4397.948718	3734.871795	4363.589744	4585.641026	4629.743590	4516.410256	4024.615385	4104.102564	4497.948718	4433.333333	4255.897436	3975.897436	1739.000000	1678.000000	36.396000	0.000000	0.000000	0.000000	0.000000	1	1	0	0	0	0	0	0	0	0	0	0	0	0	0	0	0	0	0	1	0.000	0.000
54.000000	4309.743590	4342.564103	4395.384615	3731.794872	4366.666667	4587.692308	4631.282051	4521.538462	4026.153846	4107.692308	4498.461538	4434.871795	4248.717949	3975.897436	1739.000000	1678.000000	36.403000	0.000000	0.000000	0.000000	0.000000	1	1	0	0	0	0	0	0	0	0	0	0	0	0	0	0	0	0	0	1	0.000	0.000
55.000000	4312.820513	4345.641026	4393.846154	3731.794872	4367.179487	4583.076923	4631.282051	4521.025641	4027.179487	4106.666667	4498.974359	4433.846154	4248.205128	3975.384615	1739.000000	1679.000000	36.411000	0.000000	0.000000	0.000000	0.000000	1	1	0	0	0	0	0	0	0	0	0	0	0	0	0	0	0	0	0	1	0.000	0.000
56.000000	4310.256410	4344.615385	4397.435897	3733.846154	4365.641026	4583.076923	4629.743590	4516.923077	4024.615385	4103.589744	4499.487179	4433.333333	4247.179487	3972.307692	1739.000000	1677.000000	36.417000	0.000000	0.000000	0.000000	0.000000	1	1	0	0	0	0	0	0	0	0	0	0	0	0	0	0	0	0	0	1	0.000	0.000
57.000000	4308.205128	4343.076923	4394.358974	3732.820513	4365.128205	4584.102564	4628.717949	4516.923077	4024.615385	4105.641026	4498.461538	4432.307692	4246.153846	3974.871795	1739.000000	1678.000000	36.425000	0.000000	0.000000	0.000000	0.000000	1	1	0	0	0	0	0	0	0	0	0	0	0	0	0	0	0	0	0	1	0.000	0.000
58.000000	4309.230769	4344.102564	4391.794872	3732.307692	4365.128205	4582.564103	4629.230769	4519.487179	4027.692308	4106.153846	4498.461538	4431.282051	4247.692308	3977.435897	1740.000000	1677.000000	36.433000	0.000000	0.000000	0.000000	0.000000	1	1	0	0	0	0	0	0	0	0	0	0	0	0	0	0	0	0	0	1	0.000	0.000
59.000000	4309.230769	4343.076923	4395.384615	3732.820513	4363.076923	4583.589744	4629.743590	4519.487179	4025.128205	4103.076923	4499.487179	4433.333333	4240.000000	3974.358974	1739.000000	1678.000000	36.441000	0.000000	0.000000	0.000000	0.000000	1	1	0	0	0	0	0	0	0	0	0	0	0	0	0	0	0	0	0	1	0.000	0.000
60.000000	4313.846154	4347.179487	4392.820513	3732.820513	4362.051282	4583.076923	4627.179487	4521.025641	4023.076923	4104.615385	4499.487179	4433.333333	4243.076923	3975.897436	1740.000000	1677.000000	36.451000	0.000000	0.000000	0.000000	0.000000	1	1	0	0	0	0	0	0	0	0	0	0	0	0	0	0	0	0	0	1	0.000	0.000
61.000000	4308.717949	4342.564103	4392.820513	3732.307692	4364.102564	4580.000000	4628.717949	4524.102564	4025.641026	4107.179487	4497.435897	4435.897436	4240.512821	3977.948718	1739.000000	1678.000000	36.459000	0.000000	0.000000	0.000000	0.000000	1	1	0	0	0	0	0	0	0	0	0	0	0	0	0	0	0	0	0	1	0.000	0.000
62.000000	4312.307692	4351.282051	4395.384615	3732.820513	4364.102564	4576.923077	4628.717949	4522.051282	4026.153846	4106.153846	4496.923077	4433.846154	4248.717949	3980.000000	1739.000000	1678.000000	36.466000	0.000000	0.000000	0.000000	0.000000	1	1	0	0	0	0	0	0	0	0	0	0	0	0	0	0	0	0	0	1	0.000	0.000
63.000000	4304.615385	4346.153846	4397.435897	3732.820513	4364.615385	4582.564103	4629.743590	4516.923077	4020.000000	4100.000000	4501.025641	4434.358974	4239.487179	3975.384615	1739.000000	1677.000000	36.474000	0.000000	0.000000	0.000000	0.000000	1	1	0	0	0	0	0	0	0	0	0	0	0	0	0	0	0	0	0	1	0.000	0.000
64.000000	4310.769231	4349.743590	4392.307692	3732.307692	4366.153846	4586.153846	4628.205128	4521.025641	4025.641026	4103.076923	4503.076923	4433.846154	4248.205128	3980.000000	1739.000000	1678.000000	36.482000	0.000000	0.000000	0.000000	0.000000	1	1	0	0	0	0	0	0	0	0	0	0	0	0	0	0	0	0	0	1	0.000	0.000
65.000000	4307.179487	4342.564103	4398.461538	3731.282051	4366.153846	4587.692308	4632.820513	4519.487179	4028.205128	4102.051282	4501.538462	4434.358974	4244.615385	3977.435897	1740.000000	1677.000000	36.490000	0.000000	0.000000	0.000000	0.000000	1	1	0	0	0	0	0	0	0	0	0	0	0	0	0	0	0	0	0	1	0.000	0.000
66.000000	4313.333333	4353.333333	4398.461538	3730.256410	4362.564103	4584.102564	4630.769231	4514.358974	4024.102564	4103.076923	4500.000000	4432.307692	4251.794872	3978.974359	1739.000000	1678.000000	36.498000	0.000000	0.000000	0.000000	0.000000	1	1	0	0	0	0	0	0	0	0	0	0	0	0	0	0	0	0	0	1	0.000	0.000
67.000000	4308.205128	4347.692308	4397.435897	3732.307692	4364.102564	4584.615385	4630.256410	4517.948718	4023.076923	4105.641026	4496.410256	4433.846154	4246.666667	3979.487179	1740.000000	1678.000000	36.505000	0.000000	0.000000	0.000000	0.000000	1	1	0	0	0	0	0	0	0	0	0	0	0	0	0	0	0	0	0	1	0.000	0.000
68.000000	4315.384615	4349.743590	4394.358974	3733.846154	4365.641026	4584.615385	4626.666667	4525.128205	4029.743590	4108.205128	4496.410256	4433.846154	4255.897436	3982.051282	1739.000000	1678.000000	36.512000	0.000000	0.000000	0.000000	0.000000	1	1	0	0	0	0	0	0	0	0	0	0	0	0	0	0	0	0	0	1	0.000	0.000
69.000000	4306.666667	4343.589744	4397.948718	3734.358974	4365.128205	4584.102564	4628.717949	4521.025641	4029.230769	4105.128205	4500.000000	4433.846154	4250.256410	3975.384615	1740.000000	1677.000000	36.520000	0.000000	0.000000	0.000000	0.000000	1	1	0	0	0	0	0	0	0	0	0	0	0	0	0	0	0	0	0	1	0.000	0.000
70.000000	4306.666667	4351.282051	4394.871795	3732.307692	4363.076923	4582.051282	4629.743590	4515.897436	4024.102564	4104.102564	4500.512821	4432.307692	4250.256410	3976.410256	1738.000000	1678.000000	36.528000	0.000000	0.000000	0.000000	0.000000	1	1	0	0	0	0	0	0	0	0	0	0	0	0	0	0	0	0	0	1	0.000	0.000
71.000000	4308.205128	4347.692308	4394.358974	3731.794872	4363.076923	4584.615385	4629.743590	4521.538462	4026.153846	4107.179487	4500.000000	4435.384615	4249.743590	3977.435897	1740.000000	1678.000000	36.538000	0.000000	0.000000	0.000000	0.000000	1	1	0	0	0	0	0	0	0	0	0	0	0	0	0	0	0	0	0	1	0.000	0.000
72.000000	4310.769231	4348.205128	4395.384615	3733.846154	4362.051282	4585.128205	4627.692308	4521.538462	4026.153846	4103.076923	4500.512821	4433.333333	4252.820513	3974.358974	1739.000000	1677.000000	36.545000	0.000000	0.000000	0.000000	0.000000	1	1	0	0	0	0	0	0	0	0	0	0	0	0	0	0	0	0	0	1	0.000	0.000
73.000000	4308.717949	4348.717949	4394.358974	3734.871795	4363.589744	4583.076923	4628.205128	4516.923077	4024.615385	4103.589744	4501.538462	4429.743590	4252.820513	3970.769231	1740.000000	1678.000000	36.552000	0.000000	0.000000	0.000000	0.000000	1	1	0	0	0	0	0	0	0	0	0	0	0	0	0	0	0	0	0	1	0.000	0.000
74.000000	4308.717949	4348.717949	4392.820513	3732.307692	4366.153846	4584.102564	4628.717949	4517.435897	4024.615385	4109.230769	4499.487179	4430.256410	4249.230769	3972.307692	1740.000000	1677.000000	36.560000	0.000000	0.000000	0.000000	0.000000	1	1	0	0	0	0	0	0	0	0	0	0	0	0	0	0	0	0	0	1	0.000	0.000
75.000000	4310.769231	4351.282051	4393.333333	3732.820513	4363.589744	4585.641026	4627.692308	4520.512821	4026.153846	4108.717949	4497.948718	4433.333333	4251.282051	3975.897436	1739.000000	1679.000000	36.567000	0.000000	0.000000	0.000000	0.000000	1	1	0	0	0	0	0	0	0	0	0	0	0	0	0	0	0	0	0	1	0.000	0.000
76.000000	4306.666667	4345.128205	4394.871795	3734.358974	4361.538462	4584.102564	4630.256410	4518.974359	4024.615385	4103.589744	4497.948718	4433.846154	4244.615385	3975.897436	1740.000000	1677.000000	36.575000	0.000000	0.000000	0.000000	0.000000	1	1	0	0	0	0	0	0	0	0	0	0	0	0	0	0	0	0	0	1	0.000	0.000
77.000000	4311.282051	4345.641026	4390.769231	3733.333333	4363.076923	4583.589744	4629.230769	4517.435897	4025.128205	4105.641026	4500.000000	4431.282051	4250.256410	3976.410256	1739.000000	1678.000000	36.583000	0.000000	0.000000	0.000000	0.000000	1	1	0	0	0	0	0	0	0	0	0	0	0	0	0	0	0	0	0	1	0.000	0.000
78.000000	4307.692308	4340.512821	4393.846154	3733.333333	4365.128205	4586.153846	4631.282051	4521.025641	4027.692308	4109.743590	4498.974359	4434.358974	4243.076923	3973.333333	1740.000000	1678.000000	36.591000	0.000000	0.000000	0.000000	0.000000	1	1	0	0	0	0	0	0	0	0	0	0	0	0	0	0	0	0	0	1	0.000	0.000
79.000000	4313.333333	4350.769231	4393.846154	3733.846154	4366.666667	4583.589744	4628.717949	4525.641026	4029.743590	4110.769231	4498.461538	4433.846154	4248.717949	3978.974359	1739.000000	1678.000000	36.598000	0.000000	0.000000	0.000000	0.000000	1	1	0	0	0	0	0	0	0	0	0	0	0	0	0	0	0	0	0	1	0.000	0.000
80.000000	4308.717949	4343.076923	4395.384615	3731.794872	4368.205128	4583.589744	4630.256410	4523.076923	4027.179487	4107.179487	4499.487179	4433.846154	4238.974359	3977.948718	1740.000000	1678.000000	36.606000	0.000000	0.000000	0.000000	0.000000	1	1	0	0	0	0	0	0	0	0	0	0	0	0	0	0	0	0	0	1	0.000	0.000
81.000000	4313.846154	4348.205128	4393.333333	3732.307692	4364.102564	4584.615385	4629.230769	4521.538462	4027.692308	4107.179487	4500.512821	4432.307692	4245.128205	3978.974359	1739.000000	1677.000000	36.614000	0.000000	0.000000	0.000000	0.000000	1	1	0	0	0	0	0	0	0	0	0	0	0	0	0	0	0	0	0	1	0.000	0.000
82.000000	4307.692308	4344.615385	4396.923077	3736.410256	4363.589744	4586.666667	4629.743590	4523.589744	4028.205128	4107.179487	4498.974359	4434.871795	4239.487179	3974.871795	1740.000000	1678.000000	36.622000	0.000000	0.000000	0.000000	0.000000	1	1	0	0	0	0	0	0	0	0	0	0	0	0	0	0	0	0	0	1	0.000	0.000
83.000000	4313.846154	4354.358974	4394.871795	3735.897436	4366.666667	4581.025641	4626.666667	4524.102564	4029.743590	4109.230769	4496.923077	4432.307692	4246.666667	3978.974359	1739.000000	1677.000000	36.630000	0.000000	0.000000	0.000000	0.000000	1	1	0	0	0	0	0	0	0	0	0	0	0	0	0	0	0	0	0	1	0.000	0.000
84.000000	4307.179487	4344.615385	4397.948718	3732.820513	4366.666667	4581.025641	4629.743590	4518.974359	4030.256410	4108.205128	4496.410256	4432.307692	4239.487179	3978.461538	1740.000000	1679.000000	36.637000	0.000000	0.000000	0.000000	0.000000	1	1	0	0	0	0	0	0	0	0	0	0	0	0	0	0	0	0	0	1	0.000	0.000
85.000000	4310.256410	4348.717949	4396.410256	3731.282051	4364.102564	4583.589744	4630.769231	4520.000000	4027.692308	4108.717949	4498.461538	4432.820513	4245.128205	3978.461538	1740.000000	1676.000000	36.645000	0.000000	0.000000	0.000000	0.000000	1	1	0	0	0	0	0	0	0	0	0	0	0	0	0	0	0	0	0	1	0.000	0.000
86.000000	4307.179487	4347.179487	4399.487179	3732.820513	4367.179487	4586.153846	4632.307692	4526.153846	4025.128205	4108.205128	4498.461538	4436.410256	4244.615385	3975.384615	1739.000000	1678.000000	36.653000	0.000000	0.000000	0.000000	0.000000	1	1	0	0	0	0	0	0	0	0	0	0	0	0	0	0	0	0	0	1	0.000	0.000
87.000000	4311.794872	4349.230769	4396.923077	3732.307692	4365.641026	4582.564103	4630.769231	4523.589744	4026.153846	4107.179487	4495.897436	4436.923077	4249.230769	3977.948718	1740.000000	1677.000000	36.662000	0.000000	0.000000	0.000000	0.000000	1	1	0	0	0	0	0	0	0	0	0	0	0	0	0	0	0	0	0	1	0.000	0.000
88.000000	4309.230769	4346.153846	4395.384615	3729.230769	4361.025641	4582.564103	4630.256410	4515.384615	4026.153846	4104.615385	4496.923077	4435.384615	4248.205128	3977.435897	1739.000000	1678.000000	36.670000	0.000000	0.000000	0.000000	0.000000	1	1	0	0	0	0	0	0	0	0	0	0	0	0	0	0	0	0	0	1	0.000	0.000
89.000000	4306.666667	4346.666667	4395.897436	3731.282051	4363.076923	4584.102564	4629.230769	4514.358974	4023.589744	4103.076923	4499.487179	4433.846154	4249.230769	3977.435897	1740.000000	1678.000000	36.678000	0.000000	0.000000	0.000000	0.000000	1	1	0	0	0	0	0	0	0	0	0	0	0	0	0	0	0	0	0	1	0.000	0.000
90.000000	4308.717949	4346.153846	4394.358974	3734.871795	4365.641026	4584.615385	4629.743590	4517.948718	4024.102564	4104.102564	4497.948718	4433.846154	4252.307692	3977.435897	1739.000000	1678.000000	36.685000	0.000000	0.000000	0.000000	0.000000	1	1	0	0	0	0	0	0	0	0	0	0	0	0	0	0	0	0	0	1	0.000	0.000
91.000000	4308.717949	4345.641026	4393.333333	3732.820513	4362.564103	4584.102564	4631.794872	4515.897436	4022.564103	4103.076923	4495.897436	4432.820513	4249.230769	3975.897436	1739.000000	1678.000000	36.692000	0.000000	0.000000	0.000000	0.000000	1	1	0	0	0	0	0	0	0	0	0	0	0	0	0	0	0	0	0	1	0.000	0.000
92.000000	4310.769231	4350.256410	4392.307692	3730.256410	4363.076923	4583.076923	4630.769231	4514.358974	4024.102564	4103.076923	4498.461538	4428.717949	4249.230769	3974.871795	1739.000000	1677.000000	36.700000	0.000000	0.000000	0.000000	0.000000	1	1	0	0	0	0	0	0	0	0	0	0	0	0	0	0	0	0	0	1	0.000	0.000
93.000000	4306.153846	4345.128205	4395.384615	3732.307692	4364.615385	4583.076923	4633.333333	4515.897436	4024.615385	4103.589744	4498.461538	4429.743590	4244.102564	3970.769231	1740.000000	1678.000000	36.708000	0.000000	0.000000	0.000000	0.000000	1	1	0	0	0	0	0	0	0	0	0	0	0	0	0	0	0	0	0	1	0.000	0.000
94.000000	4311.794872	4351.794872	4392.820513	3733.333333	4362.564103	4583.076923	4630.256410	4519.487179	4024.102564	4106.153846	4496.410256	4431.794872	4253.333333	3970.256410	1739.000000	1678.000000	36.715000	0.000000	0.000000	0.000000	0.000000	1	1	0	0	0	0	0	0	0	0	0	0	0	0	0	0	0	0	0	1	0.000	0.000
95.000000	4305.641026	4345.128205	4395.897436	3731.794872	4364.615385	4585.128205	4629.743590	4516.410256	4022.564103	4104.102564	4496.923077	4432.820513	4244.102564	3968.717949	1740.000000	1678.000000	36.722000	0.000000	0.000000	0.000000	0.000000	1	1	0	0	0	0	0	0	0	0	0	0	0	0	0	0	0	0	0	1	0.000	0.000
96.000000	4311.794872	4349.230769	4393.846154	3731.794872	4365.128205	4583.076923	4629.230769	4518.974359	4027.692308	4106.666667	4499.487179	4431.794872	4249.743590	3975.897436	1739.000000	1678.000000	36.730000	0.000000	0.000000	0.000000	0.000000	1	1	0	0	0	0	0	0	0	0	0	0	0	0	0	0	0	0	0	1	0.000	0.000
97.000000	4308.717949	4344.615385	4394.871795	3731.794872	4366.666667	4584.615385	4632.820513	4521.025641	4030.256410	4106.666667	4497.435897	4433.333333	4244.615385	3974.871795	1740.000000	1678.000000	36.738000	0.000000	0.000000	0.000000	0.000000	1	1	0	0	0	0	0	0	0	0	0	0	0	0	0	0	0	0	0	1	0.000	0.000
98.000000	4312.820513	4353.333333	4393.333333	3731.794872	4366.666667	4583.589744	4630.256410	4522.051282	4029.230769	4108.717949	4497.948718	4429.743590	4252.307692	3976.923077	1739.000000	1678.000000	36.748000	0.000000	0.000000	0.000000	0.000000	1	1	0	0	0	0	0	0	0	0	0	0	0	0	0	0	0	0	0	1	0.000	0.000
99.000000	4305.128205	4344.102564	4396.410256	3733.846154	4366.153846	4581.538462	4632.820513	4522.051282	4028.717949	4108.717949	4500.512821	4431.794872	4243.589744	3976.410256	1740.000000	1678.000000	36.756000	0.000000	0.000000	0.000000	0.000000	1	1	0	0	0	0	0	0	0	0	0	0	0	0	0	0	0	0	0	1	0.000	0.000
100.000000	4310.769231	4348.205128	4393.333333	3734.871795	4363.589744	4578.974359	4629.743590	4521.538462	4029.743590	4106.666667	4498.974359	4432.820513	4251.794872	3980.000000	1739.000000	1678.000000	36.764000	0.000000	0.000000	0.000000	0.000000	1	1	0	0	0	0	0	0	0	0	0	0	0	0	0	0	0	0	0	1	0.000	0.000
101.000000	4307.692308	4343.076923	4395.897436	3734.871795	4364.102564	4582.051282	4629.230769	4520.000000	4028.717949	4103.589744	4497.948718	4433.333333	4245.641026	3973.846154	1740.000000	1677.000000	36.771000	0.000000	0.000000	0.000000	0.000000	1	1	0	0	0	0	0	0	0	0	0	0	0	0	0	0	0	0	0	1	0.000	0.000
102.000000	4312.307692	4350.256410	4395.897436	3731.282051	4363.589744	4583.589744	4629.743590	4518.974359	4025.128205	4105.641026	4498.974359	4430.769231	4246.153846	3974.358974	1739.000000	1677.000000	36.779000	0.000000	0.000000	0.000000	0.000000	1	1	0	0	0	0	0	0	0	0	0	0	0	0	0	0	0	0	0	1	0.000	0.000
103.000000	4308.717949	4345.641026	4393.846154	3731.282051	4363.076923	4584.615385	4634.358974	4522.564103	4026.153846	4106.666667	4501.025641	4434.871795	4244.102564	3977.948718	1740.000000	1678.000000	36.796000	0.000000	0.000000	0.000000	0.000000	1	1	0	0	0	0	0	0	0	0	0	0	0	0	0	0	0	0	0	1	0.000	0.000
104.000000	4310.256410	4346.666667	4391.282051	3733.846154	4364.615385	4583.076923	4634.358974	4519.487179	4028.717949	4105.128205	4500.000000	4433.846154	4245.128205	3976.410256	1739.000000	1677.000000	36.796000	0.000000	0.000000	0.000000	0.000000	1	1	0	0	0	0	0	0	0	0	0	0	0	0	0	0	0	0	0	1	0.000	0.000
105.000000	4309.230769	4346.666667	4394.871795	3732.820513	4366.666667	4583.589744	4630.256410	4515.897436	4024.615385	4105.128205	4496.923077	4432.820513	4243.589744	3973.333333	1738.000000	1679.000000	36.802000	0.000000	0.000000	0.000000	0.000000	1	1	0	0	0	0	0	0	0	0	0	0	0	0	0	0	0	0	0	1	0.000	0.000
106.000000	4310.256410	4347.692308	4396.923077	3730.769231	4367.179487	4584.102564	4626.153846	4521.538462	4024.615385	4107.692308	4495.384615	4435.897436	4245.641026	3977.948718	1740.000000	1677.000000	36.808000	0.000000	0.000000	0.000000	0.000000	1	1	0	0	0	0	0	0	0	0	0	0	0	0	0	0	0	0	0	1	0.000	0.000
107.000000	4313.846154	4347.692308	4394.871795	3733.846154	4366.153846	4585.128205	4628.717949	4522.564103	4027.692308	4105.128205	4496.923077	4434.871795	4248.717949	3977.948718	1738.000000	1678.000000	36.816000	0.000000	0.000000	0.000000	0.000000	1	1	0	0	0	0	0	0	0	0	0	0	0	0	0	0	0	0	0	1	0.000	0.000
108.000000	4309.743590	4345.128205	4392.307692	3734.358974	4364.102564	4584.615385	4632.307692	4516.923077	4021.025641	4096.923077	4500.000000	4432.820513	4241.538462	3972.820513	1740.000000	1678.000000	36.824000	0.000000	0.000000	0.000000	0.000000	1	1	0	0	0	0	0	0	0	0	0	0	0	0	0	0	0	0	0	1	0.000	0.000
109.000000	4311.794872	4350.256410	4392.820513	3731.282051	4362.051282	4582.051282	4629.230769	4515.897436	4018.461538	4097.948718	4498.974359	4432.820513	4246.666667	3977.948718	1740.000000	1678.000000	36.832000	0.000000	0.000000	0.000000	0.000000	1	1	0	0	0	0	0	0	0	0	0	0	0	0	0	0	0	0	0	1	0.000	0.000
110.000000	4310.256410	4346.153846	4398.974359	3730.769231	4363.589744	4581.538462	4630.256410	4517.435897	4021.538462	4103.589744	4497.435897	4433.333333	4242.051282	3980.512821	1740.000000	1678.000000	36.842000	0.000000	0.000000	0.000000	0.000000	1	1	0	0	0	0	0	0	0	0	0	0	0	0	0	0	0	0	0	1	0.000	0.000
111.000000	4313.333333	4350.769231	4395.897436	3732.307692	4366.153846	4582.051282	4630.769231	4517.435897	4024.102564	4104.615385	4498.974359	4429.743590	4248.205128	3980.000000	1739.000000	1678.000000	36.850000	0.000000	0.000000	0.000000	0.000000	1	1	0	0	0	0	0	0	0	0	0	0	0	0	0	0	0	0	0	1	0.000	0.000
112.000000	4303.589744	4343.589744	4396.923077	3732.820513	4365.641026	4584.615385	4631.282051	4510.769231	4019.487179	4099.487179	4497.948718	4431.282051	4242.564103	3974.871795	1740.000000	1678.000000	36.857000	0.000000	0.000000	0.000000	0.000000	1	1	0	0	0	0	0	0	0	0	0	0	0	0	0	0	0	0	0	1	0.000	0.000
113.000000	4311.794872	4352.307692	4393.333333	3731.794872	4363.589744	4583.076923	4626.666667	4515.897436	4025.128205	4107.179487	4497.435897	4430.769231	4252.307692	3978.461538	1739.000000	1677.000000	36.865000	0.000000	0.000000	0.000000	0.000000	1	1	0	0	0	0	0	0	0	0	0	0	0	0	0	0	0	0	0	1	0.000	0.000
114.000000	4307.179487	4347.179487	4393.333333	3731.794872	4367.692308	4584.102564	4629.743590	4521.025641	4027.692308	4107.179487	4496.410256	4433.846154	4245.128205	3973.846154	1739.000000	1678.000000	36.871000	0.000000	0.000000	0.000000	0.000000	1	1	0	0	0	0	0	0	0	0	0	0	0	0	0	0	0	0	0	1	0.000	0.000
115.000000	4311.794872	4352.307692	4390.769231	3733.333333	4367.179487	4583.589744	4629.230769	4522.051282	4026.666667	4104.615385	4496.410256	4432.820513	4252.820513	3976.410256	1739.000000	1678.000000	36.879000	0.000000	0.000000	0.000000	0.000000	1	1	0	0	0	0	0	0	0	0	0	0	0	0	0	0	0	0	0	1	0.000	0.000
116.000000	4308.717949	4346.153846	4394.871795	3735.384615	4364.615385	4583.076923	4631.794872	4521.538462	4026.666667	4106.666667	4498.974359	4430.769231	4249.743590	3977.435897	1739.000000	1679.000000	36.887000	0.000000	0.000000	0.000000	0.000000	1	1	0	0	0	0	0	0	0	0	0	0	0	0	0	0	0	0	0	1	0.000	0.000
117.000000	4313.846154	4354.358974	4393.333333	3733.846154	4364.102564	4582.051282	4631.282051	4522.051282	4028.205128	4107.692308	4502.051282	4430.256410	4256.923077	3981.025641	1740.000000	1677.000000	36.894000	0.000000	0.000000	0.000000	0.000000	1	1	0	0	0	0	0	0	0	0	0	0	0	0	0	0	0	0	0	1	0.000	0.000
118.000000	4305.641026	4346.666667	4395.897436	3733.333333	4367.692308	4585.128205	4630.769231	4520.512821	4027.692308	4103.589744	4500.512821	4432.307692	4251.794872	3976.410256	1738.000000	1677.000000	36.904000	0.000000	0.000000	0.000000	0.000000	1	1	0	0	0	0	0	0	0	0	0	0	0	0	0	0	0	0	0	1	0.000	0.000
119.000000	4310.769231	4347.692308	4395.384615	3732.307692	4363.589744	4585.128205	4628.205128	4516.923077	4025.128205	4102.564103	4498.974359	4428.717949	4253.333333	3976.923077	1740.000000	1678.000000	36.911000	0.000000	0.000000	0.000000	0.000000	1	1	0	0	0	0	0	0	0	0	0	0	0	0	0	0	0	0	0	1	0.000	0.000
120.000000	4312.307692	4347.179487	4394.358974	3732.307692	4362.051282	4586.153846	4628.717949	4521.025641	4028.205128	4107.692308	4501.025641	4431.282051	4250.769231	3976.923077	1739.000000	1677.000000	36.919000	0.000000	0.000000	0.000000	0.000000	1	1	0	0	0	0	0	0	0	0	0	0	0	0	0	0	0	0	0	1	0.000	0.000
121.000000	4311.794872	4347.179487	4392.820513	3733.333333	4367.179487	4584.615385	4628.205128	4520.000000	4027.692308	4107.692308	4498.974359	4431.794872	4252.307692	3976.923077	1739.000000	1678.000000	36.926000	0.000000	0.000000	0.000000	0.000000	1	1	0	0	0	0	0	0	0	0	0	0	0	0	0	0	0	0	0	1	0.000	0.000
122.000000	4309.230769	4342.564103	4393.333333	3733.333333	4368.205128	4583.589744	4630.256410	4517.435897	4023.589744	4103.076923	4497.435897	4431.282051	4251.282051	3976.923077	1740.000000	1678.000000	36.934000	0.000000	0.000000	0.000000	0.000000	1	1	0	0	0	0	0	0	0	0	0	0	0	0	0	0	0	0	0	1	0.000	0.000
123.000000	4308.717949	4341.025641	4392.820513	3731.282051	4365.128205	4585.641026	4631.794872	4521.025641	4023.589744	4104.102564	4499.487179	4434.871795	4245.641026	3975.384615	1739.000000	1677.000000	36.941000	0.000000	0.000000	0.000000	0.000000	1	1	0	0	0	0	0	0	0	0	0	0	0	0	0	0	0	0	0	1	0.000	0.000
124.000000	4312.307692	4345.641026	4390.769231	3732.307692	4364.102564	4586.153846	4628.717949	4523.589744	4025.641026	4107.179487	4500.000000	4434.871795	4249.743590	3973.846154	1739.000000	1678.000000	36.949000	0.000000	0.000000	0.000000	0.000000	1	1	0	0	0	0	0	0	0	0	0	0	0	0	0	0	0	0	0	1	0.000	0.000
125.000000	4309.743590	4343.589744	4393.333333	3732.820513	4365.128205	4584.102564	4630.769231	4522.051282	4025.641026	4105.128205	4498.461538	4432.307692	4243.076923	3973.846154	1739.000000	1678.000000	36.957000	0.000000	0.000000	0.000000	0.000000	1	1	0	0	0	0	0	0	0	0	0	0	0	0	0	0	0	0	0	1	0.000	0.000
126.000000	4312.307692	4348.205128	4393.333333	3731.794872	4365.128205	4583.076923	4632.820513	4521.025641	4025.128205	4105.128205	4500.512821	4431.282051	4244.102564	3976.923077	1739.000000	1677.000000	36.965000	0.000000	0.000000	0.000000	0.000000	1	1	0	0	0	0	0	0	0	0	0	0	0	0	0	0	0	0	0	1	0.000	0.000
127.000000	4306.666667	4342.051282	4392.820513	3731.282051	4364.615385	4584.615385	4634.358974	4524.102564	4023.589744	4107.179487	4502.051282	4435.384615	4237.948718	3976.410256	1738.000000	1678.000000	36.973000	0.000000	0.000000	0.000000	0.000000	1	1	0	0	0	0	0	0	0	0	0	0	0	0	0	0	0	0	0	1	0.000	0.000
128.000000	4313.846154	4350.769231	4389.230769	3732.820513	4365.128205	4582.564103	4631.282051	4525.128205	4026.153846	4106.153846	4500.000000	4432.820513	4247.179487	3979.487179	1740.000000	1677.000000	36.980000	0.000000	0.000000	0.000000	0.000000	1	1	0	0	0	0	0	0	0	0	0	0	0	0	0	0	0	0	0	1	0.000	0.000
0.000000	4307.179487	4346.153846	4393.846154	3734.871795	4366.666667	4584.615385	4630.769231	4518.461538	4023.589744	4098.974359	4498.461538	4432.820513	4238.461538	3977.435897	1739.000000	1677.000000	36.990000	0.000000	0.000000	0.000000	0.000000	1	1	0	0	0	0	0	0	0	0	0	0	0	0	0	0	0	0	0	1	0.000	0.000
1.000000	4310.769231	4351.282051	4393.846154	3734.358974	4366.666667	4582.564103	4627.692308	4517.948718	4023.076923	4103.076923	4497.948718	4433.846154	4245.128205	3980.000000	1740.000000	1678.000000	36.998000	0.000000	0.000000	0.000000	0.000000	1	1	0	0	0	0	0	0	0	0	0	0	0	0	0	0	0	0	0	1	0.000	0.000
2.000000	4304.615385	4344.102564	4397.948718	3732.820513	4365.128205	4583.076923	4632.307692	4521.025641	4025.128205	4105.641026	4498.461538	4434.871795	4241.538462	3976.923077	1739.000000	1677.000000	37.006000	0.000000	0.000000	0.000000	0.000000	1	1	0	0	0	0	0	0	0	0	0	0	0	0	0	0	0	0	0	1	0.000	0.000
3.000000	4311.794872	4351.282051	4395.384615	3732.307692	4365.641026	4583.076923	4630.769231	4521.538462	4029.230769	4106.153846	4499.487179	4432.307692	4252.820513	3977.435897	1740.000000	1678.000000	37.014000	0.000000	0.000000	0.000000	0.000000	1	1	0	0	0	0	0	0	0	0	0	0	0	0	0	0	0	0	0	1	0.000	0.000
4.000000	4309.230769	4344.615385	4394.871795	3733.333333	4367.179487	4583.589744	4630.769231	4517.948718	4025.128205	4104.102564	4498.974359	4434.358974	4249.230769	3976.410256	1739.000000	1677.000000	37.022000	0.000000	0.000000	0.000000	0.000000	1	1	0	0	0	0	0	0	0	0	0	0	0	0	0	0	0	0	0	1	0.000	0.000
5.000000	4315.897436	4347.692308	4390.256410	3734.358974	4365.128205	4582.051282	4627.179487	4518.974359	4022.564103	4106.666667	4497.948718	4433.846154	4252.820513	3979.487179	1739.000000	1678.000000	37.029000	0.000000	0.000000	0.000000	0.000000	1	1	0	0	0	0	0	0	0	0	0	0	0	0	0	0	0	0	0	1	0.000	0.000
6.000000	4309.743590	4342.564103	4395.384615	3734.871795	4364.615385	4583.076923	4627.179487	4521.025641	4024.102564	4106.153846	4500.000000	4435.384615	4251.282051	3975.897436	1740.000000	1678.000000	37.037000	0.000000	0.000000	0.000000	0.000000	1	1	0	0	0	0	0	0	0	0	0	0	0	0	0	0	0	0	0	1	0.000	0.000
7.000000	4310.769231	4349.230769	4396.923077	3733.333333	4367.179487	4582.564103	4628.717949	4518.461538	4023.589744	4101.025641	4500.512821	4435.384615	4253.846154	3974.871795	1739.000000	1678.000000	37.045000	0.000000	0.000000	0.000000	0.000000	1	1	0	0	0	0	0	0	0	0	0	0	0	0	0	0	0	0	0	1	0.000	0.000
8.000000	4311.794872	4349.230769	4392.820513	3731.794872	4369.230769	4584.102564	4629.230769	4516.923077	4025.128205	4101.025641	4496.923077	4432.307692	4249.743590	3975.384615	1739.000000	1677.000000	37.052000	0.000000	0.000000	0.000000	0.000000	1	1	0	0	0	0	0	0	0	0	0	0	0	0	0	0	0	0	0	1	0.000	0.000
9.000000	4309.743590	4347.692308	4392.307692	3733.333333	4365.641026	4583.589744	4627.179487	4515.897436	4025.128205	4105.128205	4495.897436	4430.256410	4253.333333	3977.948718	1738.000000	1678.000000	37.060000	0.000000	0.000000	0.000000	0.000000	1	1	0	0	0	0	0	0	0	0	0	0	0	0	0	0	0	0	0	1	0.000	0.000
10.000000	4308.205128	4347.692308	4395.384615	3735.384615	4362.564103	4583.589744	4629.230769	4516.923077	4025.641026	4106.666667	4498.461538	4432.307692	4257.948718	3977.948718	1740.000000	1677.000000	37.068000	0.000000	0.000000	0.000000	0.000000	1	1	0	0	0	0	0	0	0	0	0	0	0	0	0	0	0	0	0	1	0.000	0.000
11.000000	4308.717949	4346.153846	4393.846154	3733.846154	4364.615385	4584.102564	4633.333333	4516.923077	4025.641026	4103.589744	4497.948718	4432.307692	4248.205128	3974.358974	1738.000000	1678.000000	37.075000	0.000000	0.000000	0.000000	0.000000	1	1	0	0	0	0	0	0	0	0	0	0	0	0	0	0	0	0	0	1	0.000	0.000
12.000000	4312.307692	4350.256410	4389.230769	3732.307692	4365.641026	4584.102564	4629.743590	4518.974359	4025.641026	4106.153846	4495.897436	4430.769231	4248.205128	3973.333333	1740.000000	1679.000000	37.084000	0.000000	0.000000	0.000000	0.000000	1	1	0	0	0	0	0	0	0	0	0	0	0	0	0	0	0	0	0	1	0.000	0.000
13.000000	4308.205128	4346.666667	4393.846154	3732.820513	4365.128205	4583.076923	4628.717949	4520.512821	4025.128205	4107.179487	4496.410256	4432.307692	4246.666667	3971.794872	1740.000000	1677.000000	37.092000	0.000000	0.000000	0.000000	0.000000	1	1	0	0	0	0	0	0	0	0	0	0	0	0	0	0	0	0	0	1	0.000	0.000
14.000000	4313.846154	4351.282051	4393.846154	3732.307692	4366.153846	4583.076923	4629.743590	4521.025641	4027.179487	4105.641026	4498.461538	4431.282051	4254.358974	3975.897436	1738.000000	1679.000000	37.100000	0.000000	0.000000	0.000000	0.000000	1	1	0	0	0	0	0	0	0	0	0	0	0	0	0	0	0	0	0	1	0.000	0.000
15.000000	4306.153846	4343.076923	4394.358974	3731.794872	4366.153846	4584.615385	4632.820513	4521.025641	4026.153846	4106.153846	4497.435897	4434.871795	4241.025641	3973.333333	1739.000000	1677.000000	37.107000	0.000000	0.000000	0.000000	0.000000	1	1	0	0	0	0	0	0	0	0	0	0	0	0	0	0	0	0	0	1	0.000	0.000
16.000000	4310.769231	4349.230769	4394.358974	3732.820513	4361.538462	4582.051282	4629.230769	4523.589744	4029.743590	4112.307692	4497.948718	4434.358974	4248.205128	3976.923077	1739.000000	1678.000000	37.114000	0.000000	0.000000	0.000000	0.000000	1	1	0	0	0	0	0	0	0	0	0	0	0	0	0	0	0	0	0	1	0.000	0.000
17.000000	4307.692308	4341.538462	4398.974359	3733.846154	4363.076923	4583.589744	4632.307692	4521.025641	4030.769231	4109.230769	4498.461538	4433.846154	4243.589744	3975.384615	1739.000000	1677.000000	37.122000	0.000000	0.000000	0.000000	0.000000	1	1	0	0	0	0	0	0	0	0	0	0	0	0	0	0	0	0	0	1	0.000	0.000
18.000000	4313.333333	4347.692308	4396.410256	3732.820513	4366.153846	4583.076923	4633.333333	4519.487179	4026.666667	4105.128205	4500.000000	4431.282051	4248.205128	3978.461538	1738.000000	1678.000000	37.130000	0.000000	0.000000	0.000000	0.000000	1	1	0	0	0	0	0	0	0	0	0	0	0	0	0	0	0	0	0	1	0.000	0.000
19.000000	4306.666667	4342.564103	4396.923077	3732.307692	4366.666667	4583.076923	4635.897436	4524.615385	4027.179487	4106.666667	4500.512821	4434.358974	4240.512821	3976.923077	1739.000000	1678.000000	37.138000	0.000000	0.000000	0.000000	0.000000	1	1	0	0	0	0	0	0	0	0	0	0	0	0	0	0	0	0	0	1	0.000	0.000
20.000000	4313.333333	4350.256410	4394.871795	3733.333333	4365.641026	4582.564103	4631.282051	4528.205128	4031.794872	4109.743590	4498.974359	4433.333333	4247.179487	3978.974359	1738.000000	1678.000000	37.146000	0.000000	0.000000	0.000000	0.000000	1	1	0	0	0	0	0	0	0	0	0	0	0	0	0	0	0	0	0	1	0.000	0.000
21.000000	4308.717949	4344.102564	4396.923077	3733.846154	4365.128205	4585.128205	4630.256410	4520.512821	4028.205128	4105.128205	4497.948718	4432.820513	4243.076923	3976.410256	1739.000000	1677.000000	37.154000	0.000000	0.000000	0.000000	0.000000	1	1	0	0	0	0	0	0	0	0	0	0	0	0	0	0	0	0	0	1	0.000	0.000
22.000000	4312.307692	4347.179487	4394.871795	3732.820513	4363.076923	4583.076923	4629.743590	4517.435897	4025.128205	4105.641026	4498.461538	4431.794872	4247.179487	3976.923077	1739.000000	1678.000000	37.161000	0.000000	0.000000	0.000000	0.000000	1	1	0	0	0	0	0	0	0	0	0	0	0	0	0	0	0	0	0	1	0.000	0.000
23.000000	4310.769231	4345.641026	4397.435897	3732.820513	4363.589744	4584.102564	4631.282051	4522.564103	4028.717949	4108.717949	4500.000000	4434.871795	4245.128205	3977.948718	1739.000000	1678.000000	37.169000	0.000000	0.000000	0.000000	0.000000	1	1	0	0	0	0	0	0	0	0	0	0	0	0	0	0	0	0	0	1	0.000	0.000
24.000000	4310.769231	4349.743590	4395.384615	3731.794872	4365.128205	4584.102564	4629.743590	4521.538462	4026.666667	4105.128205	4500.000000	4433.333333	4246.153846	3977.435897	1739.000000	1678.000000	37.177000	0.000000	0.000000	0.000000	0.000000	1	1	0	0	0	0	0	0	0	0	0	0	0	0	0	0	0	0	0	1	0.000	0.000
25.000000	4309.230769	4346.666667	4392.820513	3731.282051	4366.153846	4582.564103	4629.230769	4514.871795	4022.564103	4100.000000	4499.487179	4432.307692	4246.666667	3974.871795	1739.000000	1677.000000	37.185000	0.000000	0.000000	0.000000	0.000000	1	1	0	0	0	0	0	0	0	0	0	0	0	0	0	0	0	0	0	1	0.000	0.000
26.000000	4309.743590	4344.615385	4392.820513	3731.794872	4365.128205	4581.025641	4630.256410	4515.384615	4024.102564	4102.051282	4498.974359	4433.846154	4247.179487	3977.435897	1739.000000	1678.000000	37.193000	0.000000	0.000000	0.000000	0.000000	1	1	0	0	0	0	0	0	0	0	0	0	0	0	0	0	0	0	0	1	0.000	0.000
27.000000	4310.256410	4347.179487	4394.358974	3732.820513	4363.589744	4582.564103	4630.256410	4515.897436	4025.128205	4105.128205	4498.974359	4432.307692	4251.282051	3978.974359	1740.000000	1677.000000	37.201000	0.000000	0.000000	0.000000	0.000000	1	1	0	0	0	0	0	0	0	0	0	0	0	0	0	0	0	0	0	1	0.000	0.000
28.000000	4305.641026	4345.641026	4396.923077	3732.820513	4364.615385	4584.102564	4631.282051	4511.282051	4021.538462	4101.538462	4496.923077	4427.692308	4247.692308	3973.333333	1738.000000	1677.000000	37.209000	0.000000	0.000000	0.000000	0.000000	1	1	0	0	0	0	0	0	0	0	0	0	0	0	0	0	0	0	0	1	0.000	0.000
29.000000	4310.256410	4350.769231	4393.333333	3734.358974	4366.153846	4583.076923	4627.692308	4513.333333	4022.051282	4103.076923	4494.358974	4427.179487	4249.743590	3973.333333	1740.000000	1677.000000	37.217000	0.000000	0.000000	0.000000	0.000000	1	1	0	0	0	0	0	0	0	0	0	0	0	0	0	0	0	0	0	1	0.000	0.000
30.000000	4306.666667	4345.641026	4393.333333	3734.871795	4365.128205	4585.128205	4629.743590	4516.410256	4021.538462	4104.615385	4493.846154	4432.307692	4244.102564	3975.384615	1739.000000	1678.000000	37.225000	0.000000	0.000000	0.000000	0.000000	1	1	0	0	0	0	0	0	0	0	0	0	0	0	0	0	0	0	0	1	0.000	0.000
31.000000	4314.358974	4352.307692	4391.282051	3731.282051	4364.615385	4584.615385	4631.282051	4517.948718	4024.615385	4106.153846	4497.435897	4430.256410	4253.846154	3977.948718	1740.000000	1678.000000	37.232000	0.000000	0.000000	0.000000	0.000000	1	1	0	0	0	0	0	0	0	0	0	0	0	0	0	0	0	0	0	1	0.000	0.000
32.000000	4309.230769	4346.666667	4394.871795	3730.256410	4367.179487	4584.615385	4634.358974	4516.410256	4024.615385	4104.102564	4498.974359	4429.230769	4243.589744	3972.307692	1739.000000	1677.000000	37.240000	0.000000	0.000000	0.000000	0.000000	1	1	0	0	0	0	0	0	0	0	0	0	0	0	0	0	0	0	0	1	0.000	0.000
33.000000	4312.307692	4352.307692	4394.871795	3731.794872	4365.641026	4583.589744	4629.743590	4521.025641	4027.692308	4107.179487	4496.923077	4430.769231	4250.256410	3975.384615	1740.000000	1678.000000	37.247000	0.000000	0.000000	0.000000	0.000000	1	1	0	0	0	0	0	0	0	0	0	0	0	0	0	0	0	0	0	1	0.000	0.000
34.000000	4305.641026	4342.564103	4397.435897	3732.820513	4365.128205	4585.641026	4629.230769	4522.564103	4027.692308	4106.666667	4495.384615	4435.384615	4246.153846	3973.846154	1740.000000	1677.000000	37.255000	0.000000	0.000000	0.000000	0.000000	1	1	0	0	0	0	0	0	0	0	0	0	0	0	0	0	0	0	0	1	0.000	0.000
35.000000	4313.333333	4350.256410	4392.820513	3733.846154	4366.153846	4581.538462	4627.179487	4520.512821	4027.179487	4106.666667	4498.974359	4432.307692	4253.333333	3977.948718	1739.000000	1678.000000	37.263000	0.000000	0.000000	0.000000	0.000000	1	1	0	0	0	0	0	0	0	0	0	0	0	0	0	0	0	0	0	1	0.000	0.000
36.000000	4310.256410	4345.641026	4394.358974	3735.384615	4368.205128	4581.538462	4630.769231	4520.000000	4028.205128	4105.641026	4500.000000	4431.282051	4245.641026	3976.923077	1740.000000	1678.000000	37.271000	0.000000	0.000000	0.000000	0.000000	1	1	0	0	0	0	0	0	0	0	0	0	0	0	0	0	0	0	0	1	0.000	0.000
37.000000	4313.333333	4348.717949	4392.820513	3732.820513	4365.641026	4582.051282	4627.692308	4522.564103	4030.256410	4107.179487	4497.948718	4432.307692	4253.333333	3979.487179	1739.000000	1677.000000	37.279000	0.000000	0.000000	0.000000	0.000000	1	1	0	0	0	0	0	0	0	0	0	0	0	0	0	0	0	0	0	1	0.000	0.000
38.000000	4307.692308	4340.512821	4393.333333	3731.794872	4362.564103	4583.589744	4629.743590	4523.589744	4029.743590	4107.179487	4497.435897	4434.871795	4248.205128	3975.897436	1739.000000	1677.000000	37.285000	0.000000	0.000000	0.000000	0.000000	1	1	0	0	0	0	0	0	0	0	0	0	0	0	0	0	0	0	0	1	0.000	0.000
39.000000	4311.282051	4345.128205	4391.282051	3732.820513	4363.589744	4586.153846	4631.794872	4518.974359	4025.641026	4106.153846	4497.948718	4430.769231	4247.179487	3974.871795	1738.000000	1678.000000	37.293000	0.000000	0.000000	0.000000	0.000000	1	1	0	0	0	0	0	0	0	0	0	0	0	0	0	0	0	0	0	1	0.000	0.000
40.000000	4307.692308	4343.589744	4393.846154	3733.333333	4365.641026	4587.692308	4633.333333	4520.000000	4026.153846	4106.666667	4500.512821	4430.769231	4246.666667	3975.897436	1740.000000	1678.000000	37.301000	0.000000	0.000000	0.000000	0.000000	1	1	0	0	0	0	0	0	0	0	0	0	0	0	0	0	0	0	0	1	0.000	0.000
41.000000	4310.256410	4343.589744	4394.871795	3731.282051	4364.615385	4583.076923	4630.256410	4522.051282	4027.179487	4107.179487	4500.000000	4430.256410	4245.128205	3975.384615	1739.000000	1678.000000	37.309000	0.000000	0.000000	0.000000	0.000000	1	1	0	0	0	0	0	0	0	0	0	0	0	0	0	0	0	0	0	1	0.000	0.000
42.000000	4312.307692	4343.589744	4394.871795	3730.769231	4364.102564	4581.538462	4626.666667	4518.974359	4024.102564	4104.615385	4497.948718	4429.230769	4241.025641	3973.333333	1739.000000	1678.000000	37.319000	0.000000	0.000000	0.000000	0.000000	1	1	0	0	0	0	0	0	0	0	0	0	0	0	0	0	0	0	0	1	0.000	0.000
43.000000	4309.230769	4343.076923	4395.384615	3731.794872	4364.615385	4582.564103	4628.717949	4520.000000	4022.051282	4104.102564	4498.974359	4430.769231	4241.025641	3975.384615	1739.000000	1677.000000	37.327000	0.000000	0.000000	0.000000	0.000000	1	1	0	0	0	0	0	0	0	0	0	0	0	0	0	0	0	0	0	1	0.000	0.000
44.000000	4310.256410	4348.205128	4394.871795	3733.333333	4364.615385	4581.538462	4631.282051	4523.076923	4024.102564	4104.615385	4501.025641	4433.846154	4248.717949	3980.512821	1739.000000	1678.000000	37.334000	0.000000	0.000000	0.000000	0.000000	1	1	0	0	0	0	0	0	0	0	0	0	0	0	0	0	0	0	0	1	0.000	0.000
45.000000	4308.717949	4346.666667	4395.897436	3732.820513	4365.641026	4580.512821	4631.282051	4518.974359	4023.589744	4100.512821	4500.000000	4436.923077	4241.538462	3977.435897	1740.000000	1676.000000	37.342000	0.000000	0.000000	0.000000	0.000000	1	1	0	0	0	0	0	0	0	0	0	0	0	0	0	0	0	0	0	1	0.000	0.000
46.000000	4311.794872	4349.743590	4393.846154	3732.307692	4366.666667	4580.512821	4627.692308	4514.871795	4021.025641	4102.051282	4500.000000	4434.358974	4245.641026	3978.461538	1739.000000	1678.000000	37.348000	0.000000	0.000000	0.000000	0.000000	1	1	0	0	0	0	0	0	0	0	0	0	0	0	0	0	0	0	0	1	0.000	0.000
47.000000	4305.641026	4342.051282	4395.897436	3733.846154	4367.179487	4583.076923	4629.230769	4514.871795	4017.948718	4102.564103	4500.512821	4432.820513	4241.538462	3977.435897	1740.000000	1678.000000	37.356000	0.000000	0.000000	0.000000	0.000000	1	1	0	0	0	0	0	0	0	0	0	0	0	0	0	0	0	0	0	1	0.000	0.000
48.000000	4313.846154	4351.282051	4394.358974	3734.871795	4366.153846	4581.538462	4627.179487	4518.974359	4024.102564	4104.615385	4498.974359	4430.256410	4251.282051	3980.512821	1739.000000	1678.000000	37.365000	0.000000	0.000000	0.000000	0.000000	1	1	0	0	0	0	0	0	0	0	0	0	0	0	0	0	0	0	0	1	0.000	0.000
49.000000	4309.230769	4346.153846	4395.384615	3733.333333	4366.666667	4583.589744	4628.717949	4515.384615	4025.128205	4102.051282	4496.410256	4432.307692	4245.128205	3976.923077	1740.000000	1677.000000	37.371000	0.000000	0.000000	0.000000	0.000000	1	1	0	0	0	0	0	0	0	0	0	0	0	0	0	0	0	0	0	1	0.000	0.000
50.000000	4314.871795	4350.256410	4391.282051	3732.820513	4364.615385	4584.615385	4629.230769	4517.948718	4025.641026	4105.641026	4496.410256	4431.794872	4251.282051	3977.435897	1738.000000	1678.000000	37.381000	0.000000	0.000000	0.000000	0.000000	1	1	0	0	0	0	0	0	0	0	0	0	0	0	0	0	0	0	0	1	0.000	0.000
51.000000	4308.205128	4342.051282	4395.384615	3733.846154	4363.076923	4584.615385	4635.384615	4523.076923	4026.666667	4106.153846	4496.410256	4435.897436	4246.153846	3974.871795	1739.000000	1678.000000	37.389000	0.000000	0.000000	0.000000	0.000000	1	1	0	0	0	0	0	0	0	0	0	0	0	0	0	0	0	0	0	1	0.000	0.000
52.000000	4315.384615	4349.743590	4393.333333	3732.820513	4363.589744	4581.025641	4631.794872	4523.076923	4029.743590	4106.666667	4497.435897	4434.871795	4255.897436	3979.487179	1739.000000	1678.000000	37.397000	0.000000	0.000000	0.000000	0.000000	1	1	0	0	0	0	0	0	0	0	0	0	0	0	0	0	0	0	0	1	0.000	0.000
53.000000	4311.282051	4345.641026	4393.333333	3732.307692	4366.666667	4583.589744	4628.717949	4518.461538	4025.641026	4106.153846	4500.000000	4432.307692	4251.282051	3976.923077	1739.000000	1678.000000	37.405000	0.000000	0.000000	0.000000	0.000000	1	1	0	0	0	0	0	0	0	0	0	0	0	0	0	0	0	0	0	1	0.000	0.000
54.000000	4313.846154	4353.333333	4393.333333	3732.307692	4365.128205	4583.076923	4627.692308	4520.000000	4021.538462	4107.692308	4501.025641	4431.282051	4255.897436	3975.897436	1740.000000	1677.000000	37.411000	0.000000	0.000000	0.000000	0.000000	1	1	0	0	0	0	0	0	0	0	0	0	0	0	0	0	0	0	0	1	0.000	0.000
55.000000	4310.256410	4347.692308	4396.410256	3734.358974	4364.102564	4582.051282	4630.769231	4524.615385	4024.615385	4108.717949	4500.512821	4432.820513	4252.820513	3976.923077	1738.000000	1678.000000	37.418000	0.000000	0.000000	0.000000	0.000000	1	1	0	0	0	0	0	0	0	0	0	0	0	0	0	0	0	0	0	1	0.000	0.000
56.000000	4310.769231	4347.179487	4393.333333	3733.846154	4365.128205	4582.564103	4628.717949	4517.948718	4024.615385	4105.641026	4498.461538	4430.769231	4253.846154	3978.974359	1740.000000	1677.000000	37.426000	0.000000	0.000000	0.000000	0.000000	1	1	0	0	0	0	0	0	0	0	0	0	0	0	0	0	0	0	0	1	0.000	0.000
57.000000	4307.179487	4346.666667	4393.333333	3731.794872	4365.128205	4583.589744	4628.205128	4515.897436	4023.589744	4103.589744	4497.435897	4433.846154	4251.282051	3975.384615	1739.000000	1678.000000	37.434000	0.000000	0.000000	0.000000	0.000000	1	1	0	0	0	0	0	0	0	0	0	0	0	0	0	0	0	0	0	1	0.000	0.000
58.000000	4310.256410	4347.692308	4395.384615	3730.769231	4362.051282	4583.076923	4630.256410	4518.974359	4025.128205	4106.153846	4496.410256	4436.410256	4249.743590	3974.871795	1740.000000	1678.000000	37.442000	0.000000	0.000000	0.000000	0.000000	1	1	0	0	0	0	0	0	0	0	0	0	0	0	0	0	0	0	0	1	0.000	0.000
59.000000	4312.307692	4344.102564	4395.897436	3730.256410	4363.589744	4584.102564	4629.230769	4521.025641	4026.666667	4107.692308	4497.948718	4433.846154	4250.769231	3975.384615	1739.000000	1678.000000	37.450000	0.000000	0.000000	0.000000	0.000000	1	1	0	0	0	0	0	0	0	0	0	0	0	0	0	0	0	0	0	1	0.000	0.000
60.000000	4305.128205	4338.461538	4395.897436	3729.230769	4365.641026	4584.102564	4629.743590	4520.512821	4023.589744	4106.666667	4498.974359	4430.769231	4245.128205	3975.384615	1740.000000	1678.000000	37.457000	0.000000	0.000000	0.000000	0.000000	1	1	0	0	0	0	0	0	0	0	0	0	0	0	0	0	0	0	0	1	0.000	0.000
61.000000	4307.692308	4345.641026	4391.794872	3729.743590	4361.538462	4582.051282	4630.256410	4521.025641	4024.615385	4106.666667	4500.000000	4430.256410	4249.743590	3977.435897	1739.000000	1677.000000	37.467000	0.000000	0.000000	0.000000	0.000000	1	1	0	0	0	0	0	0	0	0	0	0	0	0	0	0	0	0	0	1	0.000	0.000
62.000000	4308.205128	4342.051282	4394.871795	3731.282051	4361.538462	4582.051282	4632.307692	4522.051282	4027.692308	4107.179487	4500.000000	4434.358974	4241.538462	3973.846154	1739.000000	1678.000000	37.475000	0.000000	0.000000	0.000000	0.000000	1	1	0	0	0	0	0	0	0	0	0	0	0	0	0	0	0	0	0	1	0.000	0.000
63.000000	4315.384615	4345.128205	4396.410256	3732.820513	4365.641026	4581.538462	4629.743590	4523.589744	4029.230769	4107.179487	4500.000000	4433.846154	4244.102564	3975.384615	1739.000000	1678.000000	37.482000	0.000000	0.000000	0.000000	0.000000	1	1	0	0	0	0	0	0	0	0	0	0	0	0	0	0	0	0	0	1	0.000	0.000
64.000000	4308.717949	4342.051282	4396.410256	3732.820513	4365.641026	4585.128205	4630.769231	4522.564103	4027.179487	4103.076923	4500.000000	4434.871795	4237.948718	3977.435897	1739.000000	1678.000000	37.491000	0.000000	0.000000	0.000000	0.000000	1	1	0	0	0	0	0	0	0	0	0	0	0	0	0	0	0	0	0	1	0.000	0.000
65.000000	4311.794872	4352.820513	4392.307692	3732.820513	4364.102564	4586.153846	4628.717949	4523.076923	4031.794872	4106.666667	4499.487179	4434.358974	4247.179487	3982.564103	1739.000000	1677.000000	37.498000	0.000000	0.000000	0.000000	0.000000	1	1	0	0	0	0	0	0	0	0	0	0	0	0	0	0	0	0	0	1	0.000	0.000
66.000000	4303.589744	4342.564103	4394.358974	3734.871795	4366.153846	4585.128205	4629.230769	4521.025641	4027.179487	4106.666667	4498.461538	4435.384615	4237.948718	3976.923077	1739.000000	1678.000000	37.505000	0.000000	0.000000	0.000000	0.000000	1	1	0	0	0	0	0	0	0	0	0	0	0	0	0	0	0	0	0	1	0.000	0.000
67.000000	4311.282051	4348.717949	4392.307692	3733.846154	4365.128205	4581.538462	4628.717949	4518.974359	4019.487179	4104.102564	4501.025641	4432.820513	4244.615385	3978.461538	1740.000000	1677.000000	37.513000	0.000000	0.000000	0.000000	0.000000	1	1	0	0	0	0	0	0	0	0	0	0	0	0	0	0	0	0	0	1	0.000	0.000
68.000000	4310.256410	4346.666667	4397.948718	3730.256410	4364.615385	4584.102564	4631.794872	4518.461538	4024.615385	4104.615385	4502.051282	4434.871795	4242.564103	3978.461538	1738.000000	1678.000000	37.521000	0.000000	0.000000	0.000000	0.000000	1	1	0	0	0	0	0	0	0	0	0	0	0	0	0	0	0	0	0	1	0.000	0.000
69.000000	4315.897436	4353.846154	4396.923077	3730.769231	4365.641026	4582.564103	4628.717949	4522.564103	4033.846154	4110.769231	4497.948718	4434.358974	4250.769231	3980.512821	1740.000000	1679.000000	37.530000	0.000000	0.000000	0.000000	0.000000	1	1	0	0	0	0	0	0	0	0	0	0	0	0	0	0	0	0	0	1	0.000	0.000
70.000000	4306.666667	4345.641026	4394.871795	3731.794872	4366.666667	4582.564103	4630.256410	4521.025641	4027.692308	4107.179487	4496.410256	4434.871795	4247.179487	3974.358974	1739.000000	1677.000000	37.538000	0.000000	0.000000	0.000000	0.000000	1	1	0	0	0	0	0	0	0	0	0	0	0	0	0	0	0	0	0	1	0.000	0.000
71.000000	4310.256410	4348.205128	4391.794872	3730.256410	4365.641026	4583.589744	4631.794872	4517.435897	4022.564103	4100.512821	4500.512821	4432.820513	4251.794872	3975.897436	1739.000000	1678.000000	37.545000	0.000000	0.000000	0.000000	0.000000	1	1	0	0	0	0	0	0	0	0	0	0	0	0	0	0	0	0	0	1	0.000	0.000
72.000000	4311.282051	4344.102564	4395.384615	3732.307692	4365.641026	4584.102564	4632.307692	4519.487179	4029.230769	4103.076923	4500.512821	4433.846154	4251.282051	3978.461538	1739.000000	1678.000000	37.553000	0.000000	0.000000	0.000000	0.000000	1	1	0	0	0	0	0	0	0	0	0	0	0	0	0	0	0	0	0	1	0.000	0.000
73.000000	4311.282051	4346.666667	4395.384615	3733.846154	4364.102564	4582.051282	4628.717949	4519.487179	4027.179487	4105.128205	4496.923077	4432.820513	4254.358974	3979.487179	1739.000000	1678.000000	37.561000	0.000000	0.000000	0.000000	0.000000	1	1	0	0	0	0	0	0	0	0	0	0	0	0	0	0	0	0	0	1	0.000	0.000
74.000000	4310.256410	4346.666667	4394.358974	3733.333333	4363.076923	4583.076923	4629.230769	4517.435897	4020.512821	4102.051282	4496.923077	4429.743590	4250.256410	3976.410256	1739.000000	1677.000000	37.569000	0.000000	0.000000	0.000000	0.000000	1	1	0	0	0	0	0	0	0	0	0	0	0	0	0	0	0	0	0	1	0.000	0.000
75.000000	4312.820513	4345.641026	4395.897436	3733.846154	4365.128205	4583.076923	4631.794872	4516.923077	4021.538462	4101.538462	4498.461538	4429.230769	4248.717949	3973.846154	1740.000000	1678.000000	37.577000	0.000000	0.000000	0.000000	0.000000	1	1	0	0	0	0	0	0	0	0	0	0	0	0	0	0	0	0	0	1	0.000	0.000
76.000000	4313.846154	4347.692308	4395.384615	3734.871795	4366.153846	4582.051282	4630.769231	4517.435897	4025.128205	4104.102564	4497.948718	4430.769231	4255.384615	3974.358974	1739.000000	1677.000000	37.585000	0.000000	0.000000	0.000000	0.000000	1	1	0	0	0	0	0	0	0	0	0	0	0	0	0	0	0	0	0	1	0.000	0.000
77.000000	4308.717949	4345.641026	4395.384615	3734.358974	4365.641026	4583.076923	4630.769231	4516.410256	4023.589744	4105.128205	4496.923077	4430.769231	4247.179487	3972.820513	1740.000000	1678.000000	37.592000	0.000000	0.000000	0.000000	0.000000	1	1	0	0	0	0	0	0	0	0	0	0	0	0	0	0	0	0	0	1	0.000	0.000
78.000000	4311.794872	4348.717949	4393.333333	3733.846154	4363.589744	4583.076923	4627.692308	4518.461538	4025.128205	4107.179487	4496.410256	4429.230769	4249.230769	3972.820513	1739.000000	1678.000000	37.600000	0.000000	0.000000	0.000000	0.000000	1	1	0	0	0	0	0	0	0	0	0	0	0	0	0	0	0	0	0	1	0.000	0.000
79.000000	4307.179487	4342.564103	4397.435897	3732.820513	4364.102564	4584.102564	4628.717949	4520.000000	4027.179487	4106.153846	4495.897436	4432.307692	4245.641026	3971.794872	1740.000000	1678.000000	37.608000	0.000000	0.000000	0.000000	0.000000	1	1	0	0	0	0	0	0	0	0	0	0	0	0	0	0	0	0	0	1	0.000	0.000
80.000000	4314.871795	4350.256410	4395.384615	3733.846154	4365.128205	4584.102564	4628.205128	4521.025641	4028.205128	4106.666667	4498.461538	4430.769231	4252.820513	3976.923077	1739.000000	1678.000000	37.615000	0.000000	0.000000	0.000000	0.000000	1	1	0	0	0	0	0	0	0	0	0	0	0	0	0	0	0	0	0	1	0.000	0.000
81.000000	4309.230769	4343.589744	4395.897436	3734.358974	4366.666667	4584.615385	4631.794872	4521.538462	4025.128205	4106.666667	4498.461538	4432.820513	4242.564103	3972.307692	1739.000000	1678.000000	37.622000	0.000000	0.000000	0.000000	0.000000	1	1	0	0	0	0	0	0	0	0	0	0	0	0	0	0	0	0	0	1	0.000	0.000
82.000000	4310.769231	4349.743590	4392.820513	3732.820513	4365.128205	4581.025641	4627.692308	4524.102564	4027.692308	4109.743590	4498.461538	4433.846154	4252.307692	3973.846154	1739.000000	1677.000000	37.630000	0.000000	0.000000	0.000000	0.000000	1	1	0	0	0	0	0	0	0	0	0	0	0	0	0	0	0	0	0	1	0.000	0.000
83.000000	4305.641026	4342.051282	4393.846154	3732.820513	4365.128205	4583.076923	4630.769231	4524.615385	4028.717949	4108.717949	4497.948718	4435.384615	4245.128205	3974.358974	1739.000000	1678.000000	37.637000	0.000000	0.000000	0.000000	0.000000	1	1	0	0	0	0	0	0	0	0	0	0	0	0	0	0	0	0	0	1	0.000	0.000
84.000000	4315.897436	4348.205128	4391.282051	3732.820513	4366.153846	4584.102564	4631.282051	4521.025641	4027.692308	4107.692308	4496.923077	4432.307692	4248.717949	3978.461538	1739.000000	1677.000000	37.647000	0.000000	0.000000	0.000000	0.000000	1	1	0	0	0	0	0	0	0	0	0	0	0	0	0	0	0	0	0	1	0.000	0.000
85.000000	4310.256410	4341.025641	4395.384615	3733.333333	4365.641026	4585.128205	4630.769231	4521.025641	4029.230769	4106.153846	4497.948718	4433.846154	4241.538462	3975.897436	1739.000000	1678.000000	37.655000	0.000000	0.000000	0.000000	0.000000	1	1	0	0	0	0	0	0	0	0	0	0	0	0	0	0	0	0	0	1	0.000	0.000
86.000000	4312.307692	4347.179487	4394.871795	3733.846154	4363.076923	4583.076923	4628.205128	4525.128205	4030.256410	4107.692308	4498.461538	4432.820513	4246.666667	3975.897436	1741.000000	1677.000000	37.663000	0.000000	0.000000	0.000000	0.000000	1	1	0	0	0	0	0	0	0	0	0	0	0	0	0	0	0	0	0	1	0.000	0.000
87.000000	4307.692308	4343.589744	4395.897436	3732.307692	4363.589744	4584.102564	4629.230769	4522.564103	4026.666667	4107.692308	4498.461538	4433.333333	4243.589744	3972.820513	1738.000000	1677.000000	37.671000	0.000000	0.000000	0.000000	0.000000	1	1	0	0	0	0	0	0	0	0	0	0	0	0	0	0	0	0	0	1	0.000	0.000
88.000000	4313.846154	4347.692308	4394.358974	3732.307692	4365.641026	4582.564103	4628.205128	4517.948718	4025.641026	4105.128205	4497.435897	4433.846154	4245.128205	3975.897436	1740.000000	1678.000000	37.678000	0.000000	0.000000	0.000000	0.000000	1	1	0	0	0	0	0	0	0	0	0	0	0	0	0	0	0	0	0	1	0.000	0.000
89.000000	4313.333333	4346.153846	4394.871795	3734.871795	4365.641026	4580.000000	4630.769231	4521.025641	4027.692308	4102.051282	4498.461538	4435.384615	4242.564103	3977.948718	1738.000000	1677.000000	37.686000	0.000000	0.000000	0.000000	0.000000	1	1	0	0	0	0	0	0	0	0	0	0	0	0	0	0	0	0	0	1	0.000	0.000
90.000000	4308.717949	4346.666667	4392.820513	3732.820513	4364.102564	4578.461538	4631.282051	4523.076923	4026.666667	4104.102564	4498.974359	4434.871795	4245.128205	3977.435897	1739.000000	1678.000000	37.694000	0.000000	0.000000	0.000000	0.000000	1	1	0	0	0	0	0	0	0	0	0	0	0	0	0	0	0	0	0	1	0.000	0.000
91.000000	4306.153846	4344.615385	4391.794872	3730.769231	4365.641026	4580.512821	4630.256410	4517.435897	4022.564103	4105.641026	4497.435897	4432.307692	4247.692308	3976.923077	1740.000000	1678.000000	37.702000	0.000000	0.000000	0.000000	0.000000	1	1	0	0	0	0	0	0	0	0	0	0	0	0	0	0	0	0	0	1	0.000	0.000
92.000000	4307.692308	4342.051282	4392.820513	3732.820513	4365.641026	4584.102564	4631.282051	4512.820513	4020.512821	4101.025641	4497.435897	4431.282051	4245.128205	3978.974359	1739.000000	1678.000000	37.709000	0.000000	0.000000	0.000000	0.000000	1	1	0	0	0	0	0	0	0	0	0	0	0	0	0	0	0	0	0	1	0.000	0.000
93.000000	4313.333333	4347.179487	4392.820513	3734.358974	4363.589744	4583.589744	4629.743590	4514.358974	4022.051282	4100.000000	4499.487179	4431.794872	4251.794872	3979.487179	1739.000000	1677.000000	37.717000	0.000000	0.000000	0.000000	0.000000	1	1	0	0	0	0	0	0	0	0	0	0	0	0	0	0	0	0	0	1	0.000	0.000
94.000000	4308.717949	4343.589744	4395.897436	3732.820513	4364.615385	4583.076923	4629.230769	4514.358974	4021.538462	4102.051282	4498.461538	4432.307692	4247.692308	3973.846154	1739.000000	1678.000000	37.724000	0.000000	0.000000	0.000000	0.000000	1	1	0	0	0	0	0	0	0	0	0	0	0	0	0	0	0	0	0	1	0.000	0.000
95.000000	4311.794872	4347.692308	4393.333333	3731.282051	4365.128205	4583.076923	4626.666667	4515.897436	4021.025641	4105.641026	4496.410256	4429.230769	4250.769231	3974.358974	1739.000000	1677.000000	37.732000	0.000000	0.000000	0.000000	0.000000	1	1	0	0	0	0	0	0	0	0	0	0	0	0	0	0	0	0	0	1	0.000	0.000
96.000000	4307.179487	4344.615385	4393.846154	3731.282051	4364.615385	4583.589744	4630.256410	4514.871795	4019.487179	4106.666667	4496.923077	4430.769231	4244.615385	3972.307692	1739.000000	1679.000000	37.741000	0.000000	0.000000	0.000000	0.000000	1	1	0	0	0	0	0	0	0	0	0	0	0	0	0	0	0	0	0	1	0.000	0.000
97.000000	4314.358974	4352.307692	4391.794872	3733.333333	4365.128205	4582.051282	4630.769231	4520.000000	4027.179487	4110.256410	4501.025641	4429.743590	4253.846154	3975.897436	1740.000000	1678.000000	37.749000	0.000000	0.000000	0.000000	0.000000	1	1	0	0	0	0	0	0	0	0	0	0	0	0	0	0	0	0	0	1	0.000	0.000
98.000000	4307.179487	4342.051282	4394.871795	3734.358974	4366.666667	4585.128205	4632.307692	4521.538462	4027.692308	4104.615385	4500.000000	4430.769231	4244.102564	3973.846154	1738.000000	1677.000000	37.757000	0.000000	0.000000	0.000000	0.000000	1	1	0	0	0	0	0	0	0	0	0	0	0	0	0	0	0	0	0	1	0.000	0.000
99.000000	4313.333333	4349.743590	4390.769231	3731.794872	4363.589744	4584.102564	4627.692308	4523.076923	4026.153846	4104.615385	4497.948718	4431.282051	4251.282051	3975.897436	1740.000000	1678.000000	37.764000	0.000000	0.000000	0.000000	0.000000	1	1	0	0	0	0	0	0	0	0	0	0	0	0	0	0	0	0	0	1	0.000	0.000
100.000000	4308.717949	4346.666667	4393.846154	3730.769231	4364.102564	4581.538462	4629.743590	4522.051282	4027.179487	4109.743590	4498.461538	4432.820513	4248.717949	3975.384615	1739.000000	1677.000000	37.771000	0.000000	0.000000	0.000000	0.000000	1	1	0	0	0	0	0	0	0	0	0	0	0	0	0	0	0	0	0	1	0.000	0.000
101.000000	4313.333333	4352.820513	4393.846154	3731.794872	4365.641026	4580.000000	4628.717949	4522.051282	4029.230769	4110.256410	4499.487179	4431.794872	4255.384615	3979.487179	1740.000000	1678.000000	37.779000	0.000000	0.000000	0.000000	0.000000	1	1	0	0	0	0	0	0	0	0	0	0	0	0	0	0	0	0	0	1	0.000	0.000
102.000000	4307.179487	4345.641026	4394.871795	3733.333333	4367.179487	4585.641026	4630.769231	4520.512821	4028.717949	4104.615385	4498.974359	4434.358974	4248.205128	3975.384615	1740.000000	1677.000000	37.787000	0.000000	0.000000	0.000000	0.000000	1	1	0	0	0	0	0	0	0	0	0	0	0	0	0	0	0	0	0	1	0.000	0.000
103.000000	4312.820513	4347.179487	4392.820513	3732.307692	4366.666667	4584.615385	4631.282051	4518.461538	4025.641026	4105.641026	4498.974359	4432.307692	4253.333333	3975.384615	1739.000000	1678.000000	37.795000	0.000000	0.000000	0.000000	0.000000	1	1	0	0	0	0	0	0	0	0	0	0	0	0	0	0	0	0	0	1	0.000	0.000
104.000000	4310.769231	4342.051282	4397.435897	3732.307692	4365.128205	4582.564103	4631.282051	4522.051282	4025.641026	4107.692308	4499.487179	4434.871795	4250.769231	3975.897436	1739.000000	1677.000000	37.804000	0.000000	0.000000	0.000000	0.000000	1	1	0	0	0	0	0	0	0	0	0	0	0	0	0	0	0	0	0	1	0.000	0.000
105.000000	4312.307692	4345.641026	4393.846154	3733.333333	4363.589744	4581.025641	4626.153846	4521.025641	4025.128205	4105.641026	4496.923077	4434.871795	4249.743590	3974.871795	1740.000000	1678.000000	37.811000	0.000000	0.000000	0.000000	0.000000	1	1	0	0	0	0	0	0	0	0	0	0	0	0	0	0	0	0	0	1	0.000	0.000
106.000000	4311.282051	4344.102564	4392.307692	3733.846154	4366.153846	4582.051282	4625.641026	4517.435897	4025.128205	4104.615385	4496.923077	4433.333333	4247.692308	3972.820513	1740.000000	1677.000000	37.819000	0.000000	0.000000	0.000000	0.000000	1	1	0	0	0	0	0	0	0	0	0	0	0	0	0	0	0	0	0	1	0.000	0.000
107.000000	4310.769231	4343.076923	4395.897436	3732.820513	4367.692308	4583.076923	4628.717949	4518.974359	4026.153846	4108.205128	4497.948718	4434.871795	4244.102564	3974.871795	1739.000000	1679.000000	37.827000	0.000000	0.000000	0.000000	0.000000	1	1	0	0	0	0	0	0	0	0	0	0	0	0	0	0	0	0	0	1	0.000	0.000
108.000000	4312.820513	4346.666667	4394.358974	3734.358974	4364.615385	4584.615385	4628.717949	4521.025641	4026.153846	4108.717949	4496.923077	4433.333333	4246.153846	3976.410256	1740.000000	1678.000000	37.835000	0.000000	0.000000	0.000000	0.000000	1	1	0	0	0	0	0	0	0	0	0	0	0	0	0	0	0	0	0	1	0.000	0.000
109.000000	4309.743590	4346.153846	4391.282051	3734.358974	4363.589744	4584.615385	4629.743590	4517.948718	4023.076923	4105.128205	4496.923077	4431.794872	4242.564103	3975.384615	1739.000000	1678.000000	37.843000	0.000000	0.000000	0.000000	0.000000	1	1	0	0	0	0	0	0	0	0	0	0	0	0	0	0	0	0	0	1	0.000	0.000
110.000000	4309.230769	4348.205128	4393.846154	3732.820513	4365.641026	4583.589744	4628.717949	4518.461538	4022.564103	4104.615385	4497.948718	4431.794872	4245.641026	3977.948718	1740.000000	1678.000000	37.850000	0.000000	0.000000	0.000000	0.000000	1	1	0	0	0	0	0	0	0	0	0	0	0	0	0	0	0	0	0	1	0.000	0.000
111.000000	4305.128205	4343.589744	4398.461538	3731.794872	4367.692308	4585.128205	4629.230769	4521.538462	4026.153846	4103.076923	4498.974359	4435.897436	4237.948718	3977.948718	1739.000000	1677.000000	37.858000	0.000000	0.000000	0.000000	0.000000	1	1	0	0	0	0	0	0	0	0	0	0	0	0	0	0	0	0	0	1	0.000	0.000
112.000000	4313.333333	4350.256410	4393.333333	3732.820513	4366.153846	4583.076923	4627.692308	4520.000000	4027.692308	4102.051282	4499.487179	4434.358974	4245.641026	3980.512821	1738.000000	1678.000000	37.866000	0.000000	0.000000	0.000000	0.000000	1	1	0	0	0	0	0	0	0	0	0	0	0	0	0	0	0	0	0	1	0.000	0.000
113.000000	4307.179487	4342.564103	4396.923077	3734.871795	4364.102564	4582.564103	4630.769231	4513.846154	4021.538462	4100.000000	4499.487179	4432.820513	4241.025641	3978.461538	1739.000000	1677.000000	37.874000	0.000000	0.000000	0.000000	0.000000	1	1	0	0	0	0	0	0	0	0	0	0	0	0	0	0	0	0	0	1	0.000	0.000
114.000000	4310.769231	4350.256410	4395.897436	3732.307692	4364.615385	4581.025641	4629.230769	4518.461538	4026.666667	4105.641026	4498.974359	4430.769231	4250.256410	3981.025641	1739.000000	1678.000000	37.881000	0.000000	0.000000	0.000000	0.000000	1	1	0	0	0	0	0	0	0	0	0	0	0	0	0	0	0	0	0	1	0.000	0.000
115.000000	4307.179487	4344.615385	4395.384615	3729.230769	4366.666667	4582.564103	4629.230769	4521.025641	4029.230769	4104.615385	4498.461538	4433.333333	4245.641026	3977.435897	1740.000000	1677.000000	37.888000	0.000000	0.000000	0.000000	0.000000	1	1	0	0	0	0	0	0	0	0	0	0	0	0	0	0	0	0	0	1	0.000	0.000
116.000000	4314.871795	4349.230769	4392.820513	3732.820513	4364.102564	4582.564103	4626.666667	4520.000000	4026.153846	4102.051282	4500.000000	4432.820513	4252.307692	3978.461538	1739.000000	1678.000000	37.895000	0.000000	0.000000	0.000000	0.000000	1	1	0	0	0	0	0	0	0	0	0	0	0	0	0	0	0	0	0	1	0.000	0.000
117.000000	4308.717949	4343.076923	4397.435897	3735.384615	4364.615385	4583.589744	4632.820513	4519.487179	4026.153846	4103.589744	4499.487179	4434.358974	4245.128205	3975.897436	1740.000000	1677.000000	37.903000	0.000000	0.000000	0.000000	0.000000	1	1	0	0	0	0	0	0	0	0	0	0	0	0	0	0	0	0	0	1	0.000	0.000
118.000000	4312.307692	4351.794872	4393.333333	3731.282051	4367.692308	4582.564103	4632.820513	4522.564103	4030.256410	4108.717949	4498.461538	4430.769231	4254.871795	3979.487179	1739.000000	1678.000000	37.911000	0.000000	0.000000	0.000000	0.000000	1	1	0	0	0	0	0	0	0	0	0	0	0	0	0	0	0	0	0	1	0.000	0.000
119.000000	4309.230769	4345.128205	4391.794872	3733.333333	4366.153846	4584.102564	4631.794872	4523.076923	4027.692308	4105.641026	4497.435897	4430.256410	4251.794872	3977.948718	1740.000000	1678.000000	37.919000	0.000000	0.000000	0.000000	0.000000	1	1	0	0	0	0	0	0	0	0	0	0	0	0	0	0	0	0	0	1	0.000	0.000
120.000000	4313.846154	4348.717949	4390.769231	3735.897436	4362.051282	4584.102564	4629.743590	4518.461538	4023.589744	4100.512821	4499.487179	4432.820513	4253.846154	3977.435897	1739.000000	1678.000000	37.927000	0.000000	0.000000	0.000000	0.000000	1	1	0	0	0	0	0	0	0	0	0	0	0	0	0	0	0	0	0	1	0.000	0.000
121.000000	4311.794872	4350.256410	4394.871795	3732.307692	4363.589744	4584.615385	4631.794872	4520.512821	4026.153846	4105.128205	4501.025641	4434.871795	4252.820513	3975.897436	1740.000000	1678.000000	37.934000	0.000000	0.000000	0.000000	0.000000	1	1	0	0	0	0	0	0	0	0	0	0	0	0	0	0	0	0	0	1	0.000	0.000
122.000000	4312.307692	4351.282051	4394.871795	3731.794872	4364.615385	4584.102564	4630.769231	4518.461538	4025.128205	4106.153846	4498.461538	4429.743590	4251.794872	3975.384615	1740.000000	1677.000000	37.942000	0.000000	0.000000	0.000000	0.000000	1	1	0	0	0	0	0	0	0	0	0	0	0	0	0	0	0	0	0	1	0.000	0.000
123.000000	4311.794872	4347.179487	4393.333333	3735.897436	4364.102564	4585.641026	4628.205128	4515.384615	4022.051282	4105.128205	4497.948718	4430.769231	4247.179487	3972.307692	1739.000000	1679.000000	37.952000	0.000000	0.000000	0.000000	0.000000	1	1	0	0	0	0	0	0	0	0	0	0	0	0	0	0	0	0	0	1	0.000	0.000
124.000000	4310.769231	4345.641026	4394.871795	3735.384615	4364.102564	4586.153846	4627.692308	4516.410256	4021.538462	4107.179487	4498.461538	4434.358974	4246.666667	3970.769231	1741.000000	1677.000000	37.960000	0.000000	0.000000	0.000000	0.000000	1	1	0	0	0	0	0	0	0	0	0	0	0	0	0	0	0	0	0	1	0.000	0.000
125.000000	4313.333333	4346.666667	4394.871795	3733.846154	4366.666667	4584.102564	4628.205128	4518.461538	4024.615385	4108.717949	4498.461538	4433.846154	4253.846154	3975.384615	1739.000000	1678.000000	37.968000	0.000000	0.000000	0.000000	0.000000	1	1	0	0	0	0	0	0	0	0	0	0	0	0	0	0	0	0	0	1	0.000	0.000
126.000000	4310.769231	4341.538462	4393.333333	3734.358974	4367.692308	4583.076923	4630.769231	4516.923077	4026.153846	4107.692308	4498.461538	4434.358974	4245.641026	3975.384615	1740.000000	1678.000000	37.976000	0.000000	0.000000	0.000000	0.000000	1	1	0	0	0	0	0	0	0	0	0	0	0	0	0	0	0	0	0	1	0.000	0.000
127.000000	4313.333333	4345.128205	4390.769231	3734.871795	4364.615385	4584.102564	4626.153846	4518.974359	4025.641026	4109.230769	4500.512821	4432.307692	4247.179487	3974.358974	1739.000000	1678.000000	37.982000	0.000000	0.000000	0.000000	0.000000	1	1	0	0	0	0	0	0	0	0	0	0	0	0	0	0	0	0	0	1	0.000	0.000
128.000000	4308.717949	4338.461538	4395.897436	3734.871795	4363.076923	4587.692308	4628.205128	4525.641026	4027.179487	4108.717949	4498.461538	4431.794872	4240.512821	3972.820513	1740.000000	1678.000000	37.991000	0.000000	0.000000	0.000000	0.000000	1	1	0	0	0	0	0	0	0	0	0	0	0	0	0	0	0	0	0	1	0.000	0.000
0.000000	4314.871795	4345.128205	4394.358974	3733.846154	4364.102564	4585.128205	4628.205128	4525.128205	4028.717949	4108.205128	4497.948718	4431.282051	4247.692308	3979.487179	1739.000000	1678.000000	37.999000	0.000000	0.000000	0.000000	0.000000	1	1	0	0	0	0	0	0	0	0	0	0	0	0	0	0	0	0	0	1	0.000	0.000
1.000000	4305.128205	4341.538462	4397.435897	3732.307692	4365.128205	4583.076923	4628.205128	4519.487179	4025.641026	4105.641026	4498.974359	4432.307692	4238.461538	3979.487179	1740.000000	1678.000000	38.005000	0.000000	0.000000	0.000000	0.000000	1	1	0	0	0	0	0	0	0	0	0	0	0	0	0	0	0	0	0	1	0.000	0.000
2.000000	4310.256410	4350.769231	4395.384615	3732.307692	4364.102564	4583.076923	4626.666667	4523.076923	4028.205128	4107.692308	4498.461538	4430.769231	4244.615385	3981.538462	1740.000000	1677.000000	38.013000	0.000000	0.000000	0.000000	0.000000	1	1	0	0	0	0	0	0	0	0	0	0	0	0	0	0	0	0	0	1	0.000	0.000
3.000000	4308.717949	4342.564103	4395.897436	3732.307692	4365.641026	4584.102564	4630.256410	4526.666667	4027.179487	4104.615385	4498.461538	4434.358974	4238.974359	3977.435897	1740.000000	1678.000000	38.020000	0.000000	0.000000	0.000000	0.000000	1	1	0	0	0	0	0	0	0	0	0	0	0	0	0	0	0	0	0	1	0.000	0.000
4.000000	4316.923077	4349.743590	4392.307692	3730.256410	4365.128205	4579.487179	4627.179487	4523.076923	4024.615385	4104.615385	4497.948718	4431.794872	4247.179487	3979.487179	1739.000000	1678.000000	38.028000	0.000000	0.000000	0.000000	0.000000	1	1	0	0	0	0	0	0	0	0	0	0	0	0	0	0	0	0	0	1	0.000	0.000
5.000000	4308.205128	4345.128205	4395.897436	3732.820513	4364.615385	4582.564103	4630.769231	4516.923077	4023.589744	4104.615385	4497.435897	4432.307692	4243.076923	3976.923077	1740.000000	1677.000000	38.038000	0.000000	0.000000	0.000000	0.000000	1	1	0	0	0	0	0	0	0	0	0	0	0	0	0	0	0	0	0	1	0.000	0.000
6.000000	4309.743590	4350.769231	4393.333333	3735.384615	4365.128205	4585.641026	4630.769231	4520.000000	4025.128205	4107.692308	4497.948718	4431.794872	4249.230769	3978.974359	1739.000000	1678.000000	38.046000	0.000000	0.000000	0.000000	0.000000	1	1	0	0	0	0	0	0	0	0	0	0	0	0	0	0	0	0	0	1	0.000	0.000
7.000000	4308.205128	4344.102564	4394.358974	3733.846154	4366.666667	4585.128205	4628.717949	4523.076923	4025.128205	4108.205128	4497.948718	4433.846154	4247.179487	3978.461538	1740.000000	1678.000000	38.054000	0.000000	0.000000	0.000000	0.000000	1	1	0	0	0	0	0	0	0	0	0	0	0	0	0	0	0	0	0	1	0.000	0.000
8.000000	4312.307692	4345.128205	4393.846154	3731.282051	4366.153846	4582.564103	4627.179487	4520.512821	4023.589744	4105.128205	4497.435897	4432.820513	4251.794872	3980.000000	1739.000000	1678.000000	38.062000	0.000000	0.000000	0.000000	0.000000	1	1	0	0	0	0	0	0	0	0	0	0	0	0	0	0	0	0	0	1	0.000	0.000
9.000000	4310.769231	4344.615385	4392.820513	3732.307692	4363.589744	4582.564103	4630.256410	4518.461538	4024.102564	4102.564103	4498.461538	4431.794872	4250.256410	3977.948718	1740.000000	1677.000000	38.068000	0.000000	0.000000	0.000000	0.000000	1	1	0	0	0	0	0	0	0	0	0	0	0	0	0	0	0	0	0	1	0.000	0.000
10.000000	4307.692308	4346.153846	4393.333333	3731.794872	4363.589744	4582.051282	4630.256410	4517.435897	4023.076923	4103.076923	4497.948718	4431.282051	4250.769231	3979.487179	1738.000000	1677.000000	38.076000	0.000000	0.000000	0.000000	0.000000	1	1	0	0	0	0	0	0	0	0	0	0	0	0	0	0	0	0	0	1	0.000	0.000
11.000000	4307.692308	4345.641026	4395.384615	3731.794872	4366.153846	4583.589744	4627.692308	4517.948718	4021.538462	4104.615385	4494.871795	4430.256410	4251.794872	3980.000000	1740.000000	1678.000000	38.084000	0.000000	0.000000	0.000000	0.000000	1	1	0	0	0	0	0	0	0	0	0	0	0	0	0	0	0	0	0	1	0.000	0.000
12.000000	4310.256410	4344.615385	4395.384615	3731.794872	4366.153846	4584.102564	4629.230769	4515.897436	4018.461538	4102.051282	4496.923077	4429.230769	4246.153846	3975.897436	1740.000000	1677.000000	38.092000	0.000000	0.000000	0.000000	0.000000	1	1	0	0	0	0	0	0	0	0	0	0	0	0	0	0	0	0	0	1	0.000	0.000
13.000000	4316.410256	4350.256410	4391.282051	3731.794872	4363.589744	4582.564103	4628.717949	4515.384615	4022.051282	4102.564103	4498.461538	4427.179487	4249.230769	3974.358974	1739.000000	1678.000000	38.101000	0.000000	0.000000	0.000000	0.000000	1	1	0	0	0	0	0	0	0	0	0	0	0	0	0	0	0	0	0	1	0.000	0.000
14.000000	4310.769231	4345.641026	4393.846154	3732.820513	4364.615385	4584.615385	4629.743590	4515.384615	4024.102564	4104.615385	4494.358974	4428.717949	4243.589744	3972.820513	1740.000000	1677.000000	38.108000	0.000000	0.000000	0.000000	0.000000	1	1	0	0	0	0	0	0	0	0	0	0	0	0	0	0	0	0	0	1	0.000	0.000
15.000000	4311.282051	4350.256410	4393.846154	3733.846154	4365.128205	4585.128205	4628.205128	4518.974359	4024.615385	4107.692308	4495.897436	4429.230769	4249.743590	3975.384615	1739.000000	1678.000000	38.116000	0.000000	0.000000	0.000000	0.000000	1	1	0	0	0	0	0	0	0	0	0	0	0	0	0	0	0	0	0	1	0.000	0.000
16.000000	4307.692308	4346.153846	4394.358974	3733.333333	4364.615385	4583.589744	4631.282051	4518.461538	4024.102564	4107.179487	4499.487179	4430.256410	4245.128205	3970.769231	1740.000000	1678.000000	38.124000	0.000000	0.000000	0.000000	0.000000	1	1	0	0	0	0	0	0	0	0	0	0	0	0	0	0	0	0	0	1	0.000	0.000
17.000000	4314.871795	4353.333333	4392.307692	3732.820513	4364.615385	4582.564103	4629.230769	4521.025641	4028.205128	4108.205128	4501.025641	4431.794872	4254.358974	3975.897436	1739.000000	1678.000000	38.131000	0.000000	0.000000	0.000000	0.000000	1	1	0	0	0	0	0	0	0	0	0	0	0	0	0	0	0	0	0	1	0.000	0.000
18.000000	4305.128205	4343.589744	4395.384615	3733.333333	4367.692308	4585.128205	4630.256410	4521.538462	4027.692308	4107.179487	4499.487179	4435.897436	4243.589744	3977.435897	1739.000000	1678.000000	38.139000	0.000000	0.000000	0.000000	0.000000	1	1	0	0	0	0	0	0	0	0	0	0	0	0	0	0	0	0	0	1	0.000	0.000
19.000000	4311.794872	4348.717949	4392.820513	3734.358974	4365.641026	4582.051282	4628.205128	4522.564103	4026.666667	4109.743590	4498.461538	4432.820513	4250.769231	3979.487179	1739.000000	1677.000000	38.147000	0.000000	0.000000	0.000000	0.000000	1	1	0	0	0	0	0	0	0	0	0	0	0	0	0	0	0	0	0	1	0.000	0.000
20.000000	4309.743590	4340.512821	4395.384615	3733.846154	4364.102564	4581.025641	4630.769231	4524.102564	4026.666667	4110.256410	4497.435897	4432.820513	4244.102564	3974.358974	1739.000000	1678.000000	38.154000	0.000000	0.000000	0.000000	0.000000	1	1	0	0	0	0	0	0	0	0	0	0	0	0	0	0	0	0	0	1	0.000	0.000
21.000000	4313.846154	4346.666667	4393.846154	3731.282051	4365.641026	4581.025641	4627.692308	4523.076923	4027.179487	4109.743590	4498.461538	4432.307692	4248.717949	3977.948718	1739.000000	1678.000000	38.162000	0.000000	0.000000	0.000000	0.000000	1	1	0	0	0	0	0	0	0	0	0	0	0	0	0	0	0	0	0	1	0.000	0.000
22.000000	4307.179487	4342.051282	4395.897436	3732.307692	4367.179487	4584.102564	4629.230769	4520.512821	4025.641026	4107.179487	4497.948718	4432.820513	4244.615385	3977.435897	1740.000000	1678.000000	38.170000	0.000000	0.000000	0.000000	0.000000	1	1	0	0	0	0	0	0	0	0	0	0	0	0	0	0	0	0	0	1	0.000	0.000
23.000000	4313.846154	4348.205128	4394.871795	3734.358974	4365.641026	4582.051282	4628.205128	4520.000000	4025.128205	4107.692308	4497.435897	4428.717949	4245.128205	3977.948718	1739.000000	1677.000000	38.178000	0.000000	0.000000	0.000000	0.000000	1	1	0	0	0	0	0	0	0	0	0	0	0	0	0	0	0	0	0	1	0.000	0.000
24.000000	4311.282051	4344.615385	4395.384615	3733.333333	4366.153846	4582.051282	4629.743590	4523.076923	4026.666667	4108.717949	4502.051282	4431.794872	4242.564103	3977.948718	1739.000000	1679.000000	38.186000	0.000000	0.000000	0.000000	0.000000	1	1	0	0	0	0	0	0	0	0	0	0	0	0	0	0	0	0	0	1	0.000	0.000
25.000000	4310.256410	4345.128205	4393.846154	3731.282051	4365.128205	4581.538462	4629.743590	4520.512821	4027.179487	4106.666667	4500.512821	4432.820513	4248.205128	3977.435897	1740.000000	1677.000000	38.194000	0.000000	0.000000	0.000000	0.000000	1	1	0	0	0	0	0	0	0	0	0	0	0	0	0	0	0	0	0	1	0.000	0.000
26.000000	4309.230769	4346.153846	4394.358974	3733.333333	4364.102564	4583.076923	4630.256410	4514.871795	4025.641026	4103.076923	4496.410256	4431.282051	4245.641026	3975.384615	1738.000000	1678.000000	38.201000	0.000000	0.000000	0.000000	0.000000	1	1	0	0	0	0	0	0	0	0	0	0	0	0	0	0	0	0	0	1	0.000	0.000
27.000000	4309.230769	4348.717949	4393.846154	3733.846154	4364.615385	4583.589744	4630.256410	4517.948718	4026.666667	4105.641026	4497.948718	4433.846154	4240.512821	3977.948718	1740.000000	1678.000000	38.209000	0.000000	0.000000	0.000000	0.000000	1	1	0	0	0	0	0	0	0	0	0	0	0	0	0	0	0	0	0	1	0.000	0.000
28.000000	4310.256410	4349.230769	4393.333333	3732.820513	4366.153846	4582.051282	4628.717949	4520.512821	4027.692308	4108.205128	4498.461538	4435.384615	4246.666667	3977.435897	1739.000000	1678.000000	38.217000	0.000000	0.000000	0.000000	0.000000	1	1	0	0	0	0	0	0	0	0	0	0	0	0	0	0	0	0	0	1	0.000	0.000
29.000000	4307.179487	4344.102564	4396.410256	3733.333333	4365.641026	4581.538462	4628.205128	4514.871795	4020.000000	4102.051282	4496.923077	4433.846154	4244.102564	3973.333333	1740.000000	1678.000000	38.225000	0.000000	0.000000	0.000000	0.000000	1	1	0	0	0	0	0	0	0	0	0	0	0	0	0	0	0	0	0	1	0.000	0.000
30.000000	4311.282051	4347.179487	4395.384615	3733.333333	4364.102564	4581.538462	4627.179487	4513.333333	4017.435897	4101.025641	4497.948718	4429.743590	4247.692308	3976.923077	1739.000000	1677.000000	38.233000	0.000000	0.000000	0.000000	0.000000	1	1	0	0	0	0	0	0	0	0	0	0	0	0	0	0	0	0	0	1	0.000	0.000
31.000000	4307.692308	4343.076923	4397.435897	3732.820513	4363.076923	4583.076923	4632.820513	4516.923077	4020.512821	4105.128205	4500.512821	4430.769231	4245.128205	3977.435897	1740.000000	1677.000000	38.240000	0.000000	0.000000	0.000000	0.000000	1	1	0	0	0	0	0	0	0	0	0	0	0	0	0	0	0	0	0	1	0.000	0.000
32.000000	4312.820513	4348.717949	4395.384615	3732.307692	4361.538462	4583.076923	4629.743590	4520.000000	4024.102564	4107.692308	4501.025641	4429.743590	4251.794872	3976.923077	1740.000000	1678.000000	38.248000	0.000000	0.000000	0.000000	0.000000	1	1	0	0	0	0	0	0	0	0	0	0	0	0	0	0	0	0	0	1	0.000	0.000
33.000000	4307.692308	4342.564103	4396.410256	3730.769231	4362.051282	4584.102564	4628.717949	4515.897436	4021.025641	4101.025641	4498.974359	4430.256410	4243.589744	3972.307692	1740.000000	1679.000000	38.257000	0.000000	0.000000	0.000000	0.000000	1	1	0	0	0	0	0	0	0	0	0	0	0	0	0	0	0	0	0	1	0.000	0.000
34.000000	4315.384615	4350.769231	4393.333333	3730.256410	4363.589744	4582.564103	4628.717949	4518.974359	4026.153846	4105.128205	4497.948718	4431.282051	4251.794872	3977.948718	1740.000000	1677.000000	38.265000	0.000000	0.000000	0.000000	0.000000	1	1	0	0	0	0	0	0	0	0	0	0	0	0	0	0	0	0	0	1	0.000	0.000
35.000000	4310.769231	4344.615385	4396.410256	3732.307692	4367.179487	4584.615385	4632.307692	4518.974359	4026.666667	4107.692308	4497.948718	4432.307692	4244.102564	3975.384615	1739.000000	1679.000000	38.274000	0.000000	0.000000	0.000000	0.000000	1	1	0	0	0	0	0	0	0	0	0	0	0	0	0	0	0	0	0	1	0.000	0.000
36.000000	4314.871795	4352.820513	4393.846154	3734.358974	4365.128205	4583.076923	4628.205128	4520.000000	4025.641026	4105.128205	4498.974359	4429.230769	4254.358974	3976.923077	1740.000000	1677.000000	38.282000	0.000000	0.000000	0.000000	0.000000	1	1	0	0	0	0	0	0	0	0	0	0	0	0	0	0	0	0	0	1	0.000	0.000
37.000000	4306.666667	4347.692308	4396.410256	3733.333333	4365.128205	4583.076923	4628.205128	4520.512821	4026.153846	4104.102564	4498.974359	4433.333333	4251.282051	3975.897436	1738.000000	1678.000000	38.286000	0.000000	0.000000	0.000000	0.000000	1	1	0	0	0	0	0	0	0	0	0	0	0	0	0	0	0	0	0	1	0.000	0.000
38.000000	4310.256410	4351.282051	4394.358974	3733.333333	4366.666667	4582.051282	4628.717949	4522.051282	4027.179487	4106.666667	4500.000000	4433.333333	4253.846154	3978.974359	1740.000000	1678.000000	38.294000	0.000000	0.000000	0.000000	0.000000	1	1	0	0	0	0	0	0	0	0	0	0	0	0	0	0	0	0	0	1	0.000	0.000
39.000000	4308.717949	4342.564103	4395.897436	3732.820513	4367.179487	4583.589744	4631.794872	4523.076923	4027.179487	4106.153846	4496.923077	4430.769231	4246.666667	3974.871795	1739.000000	1677.000000	38.302000	0.000000	0.000000	0.000000	0.000000	1	1	0	0	0	0	0	0	0	0	0	0	0	0	0	0	0	0	0	1	0.000	0.000
40.000000	4314.871795	4345.641026	4395.384615	3732.307692	4366.153846	4582.051282	4630.256410	4520.512821	4024.615385	4104.615385	4493.846154	4429.230769	4251.794872	3974.871795	1739.000000	1678.000000	38.312000	0.000000	0.000000	0.000000	0.000000	1	1	0	0	0	0	0	0	0	0	0	0	0	0	0	0	0	0	0	1	0.000	0.000
41.000000	4309.743590	4343.076923	4395.897436	3734.358974	4366.666667	4585.128205	4629.230769	4523.076923	4025.128205	4106.666667	4497.435897	4434.871795	4251.282051	3975.897436	1739.000000	1677.000000	38.320000	0.000000	0.000000	0.000000	0.000000	1	1	0	0	0	0	0	0	0	0	0	0	0	0	0	0	0	0	0	1	0.000	0.000
42.000000	4307.692308	4345.128205	4392.820513	3733.333333	4366.153846	4587.692308	4627.692308	4521.538462	4026.153846	4106.666667	4497.948718	4433.846154	4248.205128	3975.897436	1739.000000	1677.000000	38.328000	0.000000	0.000000	0.000000	0.000000	1	1	0	0	0	0	0	0	0	0	0	0	0	0	0	0	0	0	0	1	0.000	0.000
43.000000	4310.769231	4345.128205	4392.307692	3732.307692	4366.153846	4585.641026	4626.666667	4516.923077	4026.666667	4105.641026	4495.897436	4430.769231	4247.692308	3972.820513	1739.000000	1678.000000	38.335000	0.000000	0.000000	0.000000	0.000000	1	1	0	0	0	0	0	0	0	0	0	0	0	0	0	0	0	0	0	1	0.000	0.000
44.000000	4308.717949	4344.102564	4395.384615	3731.794872	4366.153846	4582.564103	4629.743590	4519.487179	4027.179487	4107.692308	4497.948718	4432.820513	4244.102564	3974.358974	1739.000000	1678.000000	38.341000	0.000000	0.000000	0.000000	0.000000	1	1	0	0	0	0	0	0	0	0	0	0	0	0	0	0	0	0	0	1	0.000	0.000
45.000000	4310.256410	4344.615385	4395.897436	3730.769231	4365.641026	4583.076923	4630.769231	4524.102564	4028.205128	4108.205128	4501.025641	4433.333333	4244.615385	3976.923077	1739.000000	1678.000000	38.349000	0.000000	0.000000	0.000000	0.000000	1	1	0	0	0	0	0	0	0	0	0	0	0	0	0	0	0	0	0	1	0.000	0.000
46.000000	4308.205128	4339.487179	4395.384615	3730.256410	4363.076923	4583.589744	4631.282051	4521.538462	4027.179487	4106.666667	4498.461538	4431.794872	4239.487179	3972.820513	1739.000000	1678.000000	38.357000	0.000000	0.000000	0.000000	0.000000	1	1	0	0	0	0	0	0	0	0	0	0	0	0	0	0	0	0	0	1	0.000	0.000
47.000000	4310.256410	4345.641026	4393.333333	3732.307692	4363.076923	4581.025641	4629.743590	4516.410256	4024.615385	4104.102564	4497.435897	4429.230769	4245.641026	3974.871795	1739.000000	1677.000000	38.367000	0.000000	0.000000	0.000000	0.000000	1	1	0	0	0	0	0	0	0	0	0	0	0	0	0	0	0	0	0	1	0.000	0.000
48.000000	4305.128205	4341.538462	4396.410256	3732.307692	4364.615385	4583.076923	4631.794872	4517.948718	4023.589744	4101.025641	4501.025641	4435.384615	4237.948718	3977.948718	1738.000000	1678.000000	38.374000	0.000000	0.000000	0.000000	0.000000	1	1	0	0	0	0	0	0	0	0	0	0	0	0	0	0	0	0	0	1	0.000	0.000
49.000000	4313.333333	4348.205128	4394.358974	3731.282051	4363.076923	4584.102564	4627.179487	4522.051282	4026.153846	4102.564103	4501.025641	4436.923077	4245.641026	3980.000000	1739.000000	1678.000000	38.382000	0.000000	0.000000	0.000000	0.000000	1	1	0	0	0	0	0	0	0	0	0	0	0	0	0	0	0	0	0	1	0.000	0.000
50.000000	4305.641026	4343.589744	4395.897436	3732.820513	4363.589744	4584.615385	4628.717949	4516.923077	4023.076923	4102.564103	4497.435897	4433.846154	4241.538462	3975.384615	1738.000000	1677.000000	38.390000	0.000000	0.000000	0.000000	0.000000	1	1	0	0	0	0	0	0	0	0	0	0	0	0	0	0	0	0	0	1	0.000	0.000
51.000000	4309.230769	4350.769231	4394.358974	3733.333333	4363.076923	4581.538462	4631.282051	4515.897436	4024.615385	4104.615385	4496.923077	4429.230769	4249.230769	3980.512821	1739.000000	1679.000000	38.398000	0.000000	0.000000	0.000000	0.000000	1	1	0	0	0	0	0	0	0	0	0	0	0	0	0	0	0	0	0	1	0.000	0.000
52.000000	4309.230769	4342.051282	4398.974359	3733.333333	4363.076923	4582.564103	4632.307692	4517.948718	4026.153846	4103.589744	4499.487179	4432.307692	4242.564103	3979.487179	1740.000000	1677.000000	38.406000	0.000000	0.000000	0.000000	0.000000	1	1	0	0	0	0	0	0	0	0	0	0	0	0	0	0	0	0	0	1	0.000	0.000
53.000000	4316.410256	4347.692308	4395.897436	3734.358974	4365.128205	4582.564103	4628.205128	4520.000000	4026.666667	4106.666667	4500.000000	4433.333333	4251.794872	3980.000000	1739.000000	1678.000000	38.412000	0.000000	0.000000	0.000000	0.000000	1	1	0	0	0	0	0	0	0	0	0	0	0	0	0	0	0	0	0	1	0.000	0.000
54.000000	4306.153846	4341.025641	4397.948718	3733.846154	4368.717949	4584.102564	4631.282051	4519.487179	4025.641026	4103.589744	4496.923077	4434.871795	4247.179487	3978.461538	1740.000000	1678.000000	38.420000	0.000000	0.000000	0.000000	0.000000	1	1	0	0	0	0	0	0	0	0	0	0	0	0	0	0	0	0	0	1	0.000	0.000
55.000000	4310.256410	4347.179487	4395.384615	3733.333333	4366.666667	4583.076923	4629.230769	4520.512821	4026.153846	4102.564103	4496.410256	4433.333333	4252.307692	3980.512821	1739.000000	1678.000000	38.427000	0.000000	0.000000	0.000000	0.000000	1	1	0	0	0	0	0	0	0	0	0	0	0	0	0	0	0	0	0	1	0.000	0.000
56.000000	4308.717949	4346.153846	4394.358974	3734.358974	4365.641026	4583.076923	4627.692308	4520.000000	4025.128205	4107.179487	4498.974359	4434.358974	4248.717949	3976.410256	1739.000000	1678.000000	38.435000	0.000000	0.000000	0.000000	0.000000	1	1	0	0	0	0	0	0	0	0	0	0	0	0	0	0	0	0	0	1	0.000	0.000
57.000000	4309.230769	4348.205128	4392.307692	3732.307692	4363.589744	4582.051282	4629.230769	4515.897436	4023.076923	4105.641026	4498.974359	4432.820513	4252.820513	3976.410256	1738.000000	1678.000000	38.443000	0.000000	0.000000	0.000000	0.000000	1	1	0	0	0	0	0	0	0	0	0	0	0	0	0	0	0	0	0	1	0.000	0.000
58.000000	4309.230769	4343.076923	4393.846154	3733.333333	4361.538462	4584.615385	4630.769231	4516.410256	4024.615385	4101.538462	4496.410256	4430.256410	4253.333333	3976.410256	1739.000000	1677.000000	38.451000	0.000000	0.000000	0.000000	0.000000	1	1	0	0	0	0	0	0	0	0	0	0	0	0	0	0	0	0	0	1	0.000	0.000
59.000000	4312.307692	4346.666667	4393.846154	3735.384615	4362.564103	4584.102564	4627.692308	4518.461538	4022.564103	4103.589744	4496.923077	4429.743590	4254.871795	3976.923077	1739.000000	1679.000000	38.458000	0.000000	0.000000	0.000000	0.000000	1	1	0	0	0	0	0	0	0	0	0	0	0	0	0	0	0	0	0	1	0.000	0.000
60.000000	4310.256410	4350.769231	4393.333333	3733.846154	4364.102564	4583.076923	4627.692308	4518.974359	4024.102564	4106.153846	4498.974359	4431.794872	4254.358974	3976.410256	1740.000000	1678.000000	38.466000	0.000000	0.000000	0.000000	0.000000	1	1	0	0	0	0	0	0	0	0	0	0	0	0	0	0	0	0	0	1	0.000	0.000
61.000000	4307.692308	4348.205128	4394.871795	3730.769231	4366.153846	4584.615385	4631.282051	4516.923077	4026.153846	4103.589744	4496.923077	4430.769231	4245.641026	3971.794872	1739.000000	1678.000000	38.474000	0.000000	0.000000	0.000000	0.000000	1	1	0	0	0	0	0	0	0	0	0	0	0	0	0	0	0	0	0	1	0.000	0.000
62.000000	4314.358974	4349.230769	4393.333333	3730.256410	4366.153846	4582.564103	4629.743590	4518.461538	4026.666667	4106.153846	4497.948718	4428.717949	4249.743590	3972.820513	1739.000000	1677.000000	38.482000	0.000000	0.000000	0.000000	0.000000	1	1	0	0	0	0	0	0	0	0	0	0	0	0	0	0	0	0	0	1	0.000	0.000
63.000000	4308.717949	4343.589744	4393.846154	3731.282051	4364.615385	4578.974359	4630.256410	4520.512821	4025.641026	4108.205128	4501.025641	4434.871795	4245.128205	3973.846154	1739.000000	1678.000000	38.492000	0.000000	0.000000	0.000000	0.000000	1	1	0	0	0	0	0	0	0	0	0	0	0	0	0	0	0	0	0	1	0.000	0.000
64.000000	4311.794872	4347.179487	4391.282051	3732.820513	4364.615385	4581.025641	4629.743590	4520.512821	4027.692308	4106.666667	4501.025641	4436.923077	4249.230769	3975.897436	1739.000000	1677.000000	38.499000	0.000000	0.000000	0.000000	0.000000	1	1	0	0	0	0	0	0	0	0	0	0	0	0	0	0	0	0	0	1	0.000	0.000
65.000000	4305.128205	4338.974359	4394.358974	3733.846154	4366.153846	4586.153846	4631.794872	4519.487179	4028.205128	4106.666667	4498.461538	4434.358974	4240.512821	3972.820513	1738.000000	1679.000000	38.507000	0.000000	0.000000	0.000000	0.000000	1	1	0	0	0	0	0	0	0	0	0	0	0	0	0	0	0	0	0	1	0.000	0.000
66.000000	4310.769231	4345.641026	4393.333333	3732.820513	4364.102564	4582.051282	4625.641026	4524.615385	4028.205128	4112.307692	4500.000000	4431.282051	4250.769231	3978.461538	1740.000000	1677.000000	38.515000	0.000000	0.000000	0.000000	0.000000	1	1	0	0	0	0	0	0	0	0	0	0	0	0	0	0	0	0	0	1	0.000	0.000
67.000000	4306.666667	4341.025641	4392.820513	3734.358974	4364.615385	4582.051282	4626.153846	4525.128205	4025.641026	4107.692308	4500.512821	4432.820513	4243.076923	3976.410256	1738.000000	1678.000000	38.522000	0.000000	0.000000	0.000000	0.000000	1	1	0	0	0	0	0	0	0	0	0	0	0	0	0	0	0	0	0	1	0.000	0.000
68.000000	4313.333333	4350.256410	4389.743590	3735.384615	4366.666667	4585.128205	4627.179487	4522.051282	4025.128205	4105.128205	4498.461538	4431.282051	4243.589744	3978.461538	1739.000000	1678.000000	38.530000	0.000000	0.000000	0.000000	0.000000	1	1	0	0	0	0	0	0	0	0	0	0	0	0	0	0	0	0	0	1	0.000	0.000
69.000000	4306.666667	4343.589744	4397.435897	3732.307692	4365.641026	4586.153846	4630.769231	4522.051282	4027.692308	4105.128205	4497.948718	4434.871795	4236.410256	3978.461538	1739.000000	1677.000000	38.538000	0.000000	0.000000	0.000000	0.000000	1	1	0	0	0	0	0	0	0	0	0	0	0	0	0	0	0	0	0	1	0.000	0.000
70.000000	4311.794872	4348.717949	4396.410256	3730.256410	4361.025641	4580.512821	4628.717949	4525.128205	4030.769231	4107.692308	4500.000000	4435.384615	4247.179487	3980.512821	1739.000000	1678.000000	38.544000	0.000000	0.000000	0.000000	0.000000	1	1	0	0	0	0	0	0	0	0	0	0	0	0	0	0	0	0	0	1	0.000	0.000
71.000000	4309.743590	4345.128205	4393.333333	3732.307692	4363.076923	4582.051282	4632.307692	4521.025641	4028.205128	4104.615385	4498.461538	4434.871795	4241.538462	3975.897436	1740.000000	1677.000000	38.554000	0.000000	0.000000	0.000000	0.000000	1	1	0	0	0	0	0	0	0	0	0	0	0	0	0	0	0	0	0	1	0.000	0.000
72.000000	4313.333333	4349.743590	4391.794872	3734.358974	4367.692308	4581.025641	4630.769231	4516.923077	4025.641026	4104.102564	4493.333333	4431.794872	4243.076923	3976.410256	1738.000000	1678.000000	38.562000	0.000000	0.000000	0.000000	0.000000	1	1	0	0	0	0	0	0	0	0	0	0	0	0	0	0	0	0	0	1	0.000	0.000
73.000000	4309.743590	4344.615385	4396.923077	3733.333333	4366.153846	4580.512821	4629.230769	4521.538462	4029.230769	4106.666667	4495.384615	4434.358974	4247.179487	3977.948718	1739.000000	1678.000000	38.570000	0.000000	0.000000	0.000000	0.000000	1	1	0	0	0	0	0	0	0	0	0	0	0	0	0	0	0	0	0	1	0.000	0.000
74.000000	4309.743590	4344.615385	4393.846154	3731.282051	4365.128205	4582.564103	4628.717949	4522.564103	4029.230769	4104.615385	4499.487179	4432.820513	4252.820513	3977.435897	1739.000000	1678.000000	38.578000	0.000000	0.000000	0.000000	0.000000	1	1	0	0	0	0	0	0	0	0	0	0	0	0	0	0	0	0	0	1	0.000	0.000
75.000000	4308.205128	4345.128205	4391.282051	3733.333333	4368.205128	4584.615385	4631.794872	4515.897436	4022.564103	4101.025641	4497.948718	4428.717949	4250.256410	3972.307692	1739.000000	1677.000000	38.585000	0.000000	0.000000	0.000000	0.000000	1	1	0	0	0	0	0	0	0	0	0	0	0	0	0	0	0	0	0	1	0.000	0.000
76.000000	4307.692308	4345.641026	4395.384615	3735.897436	4366.153846	4583.589744	4632.820513	4513.333333	4021.538462	4101.538462	4497.435897	4428.205128	4249.230769	3974.358974	1738.000000	1678.000000	38.593000	0.000000	0.000000	0.000000	0.000000	1	1	0	0	0	0	0	0	0	0	0	0	0	0	0	0	0	0	0	1	0.000	0.000
77.000000	4309.743590	4345.641026	4397.435897	3734.358974	4363.589744	4584.102564	4630.256410	4516.410256	4025.641026	4104.102564	4498.974359	4429.230769	4254.358974	3979.487179	1740.000000	1677.000000	38.601000	0.000000	0.000000	0.000000	0.000000	1	1	0	0	0	0	0	0	0	0	0	0	0	0	0	0	0	0	0	1	0.000	0.000
78.000000	4308.205128	4344.102564	4396.923077	3731.282051	4366.666667	4584.615385	4630.769231	4514.871795	4022.564103	4102.051282	4497.948718	4431.282051	4248.717949	3975.384615	1738.000000	1678.000000	38.609000	0.000000	0.000000	0.000000	0.000000	1	1	0	0	0	0	0	0	0	0	0	0	0	0	0	0	0	0	0	1	0.000	0.000
79.000000	4311.282051	4349.230769	4391.282051	3731.282051	4364.615385	4582.564103	4630.256410	4514.871795	4023.589744	4105.641026	4497.948718	4430.256410	4250.256410	3972.307692	1740.000000	1677.000000	38.617000	0.000000	0.000000	0.000000	0.000000	1	1	0	0	0	0	0	0	0	0	0	0	0	0	0	0	0	0	0	1	0.000	0.000
80.000000	4306.153846	4343.589744	4393.333333	3732.307692	4362.564103	4583.076923	4633.846154	4515.897436	4025.128205	4108.717949	4497.435897	4431.794872	4244.102564	3972.307692	1739.000000	1677.000000	38.625000	0.000000	0.000000	0.000000	0.000000	1	1	0	0	0	0	0	0	0	0	0	0	0	0	0	0	0	0	0	1	0.000	0.000
81.000000	4312.307692	4350.769231	4394.358974	3733.333333	4364.102564	4582.564103	4631.282051	4518.974359	4025.641026	4107.179487	4495.384615	4431.282051	4254.358974	3977.435897	1739.000000	1679.000000	38.632000	0.000000	0.000000	0.000000	0.000000	1	1	0	0	0	0	0	0	0	0	0	0	0	0	0	0	0	0	0	1	0.000	0.000
82.000000	4307.179487	4346.153846	4395.384615	3732.820513	4365.128205	4583.589744	4631.794872	4519.487179	4025.128205	4102.564103	4496.410256	4431.282051	4246.666667	3973.846154	1739.000000	1677.000000	38.640000	0.000000	0.000000	0.000000	0.000000	1	1	0	0	0	0	0	0	0	0	0	0	0	0	0	0	0	0	0	1	0.000	0.000
83.000000	4311.794872	4352.820513	4391.794872	3732.307692	4365.641026	4583.589744	4628.717949	4523.076923	4028.717949	4106.666667	4500.000000	4431.794872	4250.256410	3975.897436	1739.000000	1678.000000	38.648000	0.000000	0.000000	0.000000	0.000000	1	1	0	0	0	0	0	0	0	0	0	0	0	0	0	0	0	0	0	1	0.000	0.000
84.000000	4305.128205	4345.128205	4394.871795	3733.846154	4366.153846	4585.641026	4631.794872	4521.538462	4027.692308	4108.717949	4499.487179	4437.435897	4243.076923	3974.871795	1739.000000	1678.000000	38.656000	0.000000	0.000000	0.000000	0.000000	1	1	0	0	0	0	0	0	0	0	0	0	0	0	0	0	0	0	0	1	0.000	0.000
85.000000	4312.820513	4351.794872	4393.333333	3733.846154	4362.051282	4584.102564	4629.230769	4520.000000	4026.153846	4107.692308	4498.974359	4434.871795	4252.820513	3979.487179	1739.000000	1677.000000	38.664000	0.000000	0.000000	0.000000	0.000000	1	1	0	0	0	0	0	0	0	0	0	0	0	0	0	0	0	0	0	1	0.000	0.000
86.000000	4307.179487	4344.102564	4396.410256	3733.333333	4363.589744	4582.564103	4629.230769	4521.025641	4027.179487	4106.153846	4498.974359	4432.820513	4244.615385	3975.897436	1740.000000	1677.000000	38.671000	0.000000	0.000000	0.000000	0.000000	1	1	0	0	0	0	0	0	0	0	0	0	0	0	0	0	0	0	0	1	0.000	0.000
87.000000	4310.769231	4348.205128	4393.846154	3732.307692	4366.153846	4579.487179	4627.692308	4521.538462	4028.717949	4107.179487	4497.948718	4431.794872	4249.230769	3977.435897	1738.000000	1678.000000	38.679000	0.000000	0.000000	0.000000	0.000000	1	1	0	0	0	0	0	0	0	0	0	0	0	0	0	0	0	0	0	1	0.000	0.000
88.000000	4308.205128	4343.076923	4394.871795	3732.307692	4364.102564	4581.538462	4633.333333	4520.512821	4027.692308	4105.641026	4498.974359	4433.846154	4248.205128	3974.871795	1740.000000	1678.000000	38.687000	0.000000	0.000000	0.000000	0.000000	1	1	0	0	0	0	0	0	0	0	0	0	0	0	0	0	0	0	0	1	0.000	0.000
89.000000	4312.820513	4344.615385	4394.358974	3731.282051	4363.076923	4581.538462	4633.333333	4518.974359	4025.641026	4105.128205	4497.948718	4431.282051	4246.666667	3972.307692	1739.000000	1678.000000	38.695000	0.000000	0.000000	0.000000	0.000000	1	1	0	0	0	0	0	0	0	0	0	0	0	0	0	0	0	0	0	1	0.000	0.000
90.000000	4311.794872	4340.512821	4394.871795	3730.256410	4364.615385	4583.589744	4628.205128	4522.564103	4026.666667	4105.641026	4497.435897	4431.794872	4243.076923	3973.846154	1739.000000	1678.000000	38.703000	0.000000	0.000000	0.000000	0.000000	1	1	0	0	0	0	0	0	0	0	0	0	0	0	0	0	0	0	0	1	0.000	0.000
91.000000	4310.769231	4343.589744	4393.333333	3731.794872	4363.076923	4584.102564	4627.179487	4523.076923	4026.153846	4106.153846	4496.923077	4433.333333	4245.641026	3976.923077	1739.000000	1677.000000	38.711000	0.000000	0.000000	0.000000	0.000000	1	1	0	0	0	0	0	0	0	0	0	0	0	0	0	0	0	0	0	1	0.000	0.000
92.000000	4309.230769	4346.666667	4392.820513	3733.846154	4363.076923	4583.589744	4629.743590	4518.974359	4025.641026	4104.615385	4497.948718	4432.307692	4246.153846	3976.410256	1738.000000	1679.000000	38.718000	0.000000	0.000000	0.000000	0.000000	1	1	0	0	0	0	0	0	0	0	0	0	0	0	0	0	0	0	0	1	0.000	0.000
93.000000	4310.256410	4346.153846	4392.820513	3731.282051	4365.641026	4583.589744	4629.743590	4520.512821	4026.153846	4103.589744	4498.974359	4431.794872	4242.051282	3975.897436	1739.000000	1677.000000	38.725000	0.000000	0.000000	0.000000	0.000000	1	1	0	0	0	0	0	0	0	0	0	0	0	0	0	0	0	0	0	1	0.000	0.000
94.000000	4314.358974	4348.205128	4391.794872	3731.794872	4366.153846	4583.076923	4627.692308	4522.051282	4025.128205	4103.076923	4498.461538	4433.846154	4247.179487	3976.923077	1739.000000	1678.000000	38.732000	0.000000	0.000000	0.000000	0.000000	1	1	0	0	0	0	0	0	0	0	0	0	0	0	0	0	0	0	0	1	0.000	0.000
95.000000	4307.692308	4345.641026	4395.384615	3734.358974	4367.179487	4584.615385	4630.256410	4515.897436	4022.051282	4101.538462	4498.974359	4436.923077	4242.564103	3975.897436	1740.000000	1678.000000	38.740000	0.000000	0.000000	0.000000	0.000000	1	1	0	0	0	0	0	0	0	0	0	0	0	0	0	0	0	0	0	1	0.000	0.000
96.000000	4310.256410	4350.256410	4393.333333	3732.307692	4367.179487	4585.128205	4628.205128	4513.846154	4023.076923	4102.564103	4502.051282	4432.820513	4246.666667	3980.000000	1739.000000	1677.000000	38.748000	0.000000	0.000000	0.000000	0.000000	1	1	0	0	0	0	0	0	0	0	0	0	0	0	0	0	0	0	0	1	0.000	0.000
97.000000	4306.666667	4343.076923	4394.871795	3731.794872	4365.641026	4586.666667	4628.717949	4514.871795	4020.000000	4100.512821	4502.564103	4431.794872	4240.512821	3978.461538	1740.000000	1678.000000	38.758000	0.000000	0.000000	0.000000	0.000000	1	1	0	0	0	0	0	0	0	0	0	0	0	0	0	0	0	0	0	1	0.000	0.000
98.000000	4314.358974	4349.743590	4394.871795	3734.871795	4365.128205	4584.102564	4629.743590	4520.000000	4023.076923	4103.589744	4499.487179	4431.794872	4251.282051	3978.461538	1739.000000	1678.000000	38.765000	0.000000	0.000000	0.000000	0.000000	1	1	0	0	0	0	0	0	0	0	0	0	0	0	0	0	0	0	0	1	0.000	0.000
99.000000	4310.256410	4343.589744	4398.974359	3733.846154	4367.179487	4582.564103	4635.384615	4518.974359	4024.615385	4101.538462	4496.923077	4431.282051	4247.692308	3974.871795	1740.000000	1678.000000	38.773000	0.000000	0.000000	0.000000	0.000000	1	1	0	0	0	0	0	0	0	0	0	0	0	0	0	0	0	0	0	1	0.000	0.000
100.000000	4315.384615	4350.256410	4393.333333	3732.307692	4366.153846	4581.538462	4631.794872	4517.948718	4024.615385	4103.589744	4497.435897	4430.256410	4252.820513	3976.410256	1739.000000	1678.000000	38.781000	0.000000	0.000000	0.000000	0.000000	1	1	0	0	0	0	0	0	0	0	0	0	0	0	0	0	0	0	0	1	0.000	0.000
101.000000	4307.692308	4344.615385	4394.358974	3732.820513	4366.666667	4584.102564	4631.794872	4521.025641	4024.102564	4107.179487	4496.410256	4435.384615	4245.128205	3974.358974	1739.000000	1678.000000	38.789000	0.000000	0.000000	0.000000	0.000000	1	1	0	0	0	0	0	0	0	0	0	0	0	0	0	0	0	0	0	1	0.000	0.000
102.000000	4313.846154	4353.846154	4395.384615	3732.307692	4366.153846	4583.589744	4630.769231	4524.102564	4029.743590	4109.230769	4496.410256	4433.846154	4257.435897	3980.512821	1739.000000	1677.000000	38.797000	0.000000	0.000000	0.000000	0.000000	1	1	0	0	0	0	0	0	0	0	0	0	0	0	0	0	0	0	0	1	0.000	0.000
103.000000	4309.230769	4346.666667	4397.948718	3733.333333	4366.153846	4582.564103	4630.256410	4518.974359	4028.717949	4106.666667	4496.923077	4431.794872	4252.307692	3975.897436	1739.000000	1678.000000	38.804000	0.000000	0.000000	0.000000	0.000000	1	1	0	0	0	0	0	0	0	0	0	0	0	0	0	0	0	0	0	1	0.000	0.000
104.000000	4312.820513	4349.743590	4393.846154	3733.846154	4363.076923	4582.051282	4627.179487	4515.897436	4023.076923	4107.692308	4496.923077	4431.794872	4252.820513	3974.358974	1740.000000	1677.000000	38.812000	0.000000	0.000000	0.000000	0.000000	1	1	0	0	0	0	0	0	0	0	0	0	0	0	0	0	0	0	0	1	0.000	0.000
105.000000	4309.230769	4346.666667	4394.871795	3733.333333	4363.589744	4585.641026	4629.743590	4523.076923	4025.128205	4107.692308	4499.487179	4436.410256	4251.282051	3977.948718	1738.000000	1678.000000	38.819000	0.000000	0.000000	0.000000	0.000000	1	1	0	0	0	0	0	0	0	0	0	0	0	0	0	0	0	0	0	1	0.000	0.000
106.000000	4309.230769	4347.179487	4394.871795	3733.846154	4366.153846	4585.128205	4628.717949	4520.512821	4024.615385	4103.076923	4501.025641	4431.794872	4253.333333	3980.512821	1740.000000	1677.000000	38.827000	0.000000	0.000000	0.000000	0.000000	1	1	0	0	0	0	0	0	0	0	0	0	0	0	0	0	0	0	0	1	0.000	0.000
107.000000	4308.205128	4343.589744	4393.846154	3733.846154	4365.641026	4583.076923	4629.743590	4516.410256	4022.564103	4103.589744	4501.025641	4429.743590	4250.256410	3974.871795	1739.000000	1677.000000	38.835000	0.000000	0.000000	0.000000	0.000000	1	1	0	0	0	0	0	0	0	0	0	0	0	0	0	0	0	0	0	1	0.000	0.000
108.000000	4310.256410	4345.128205	4392.307692	3731.282051	4364.102564	4583.076923	4633.333333	4520.000000	4025.128205	4106.666667	4498.974359	4432.820513	4249.743590	3975.384615	1739.000000	1678.000000	38.843000	0.000000	0.000000	0.000000	0.000000	1	1	0	0	0	0	0	0	0	0	0	0	0	0	0	0	0	0	0	1	0.000	0.000
