Counter	AF3	F7	F3	FC5	T7	P7	O1	O2	P8	T8	FC6	F4	F8	AF4	GyroX	GyroY	Timestamp	FUNC_ID	FUNC_VALUE	MARKER	SYNC_SIGNAL	CMS_Q	DRL_Q	AF3_Q	F7_Q	F3_Q	FC5_Q	T7_Q	P7_Q	O1_Q	O2_Q	P8_Q	T8_Q	FC6_Q	F4_Q	F8_Q	AF4_Q	Blink	LeftWink	RightWink	EyesOpen	LeftEyeLid	RightEyelid
100.000000	4358.461538	4386.153846	4407.692308	3712.820513	4385.641026	4608.717949	4630.256410	4523.076923	4027.179487	4102.564103	4515.384615	4439.487179	4266.153846	3949.743590	1737.000000	1677.000000	28.173000	0.000000	0.000000	0.000000	0.000000	1	1	0	0	0	0	0	0	0	0	0	0	0	0	0	0	0	0	0	1	0.000	0.000
101.000000	4354.871795	4385.641026	4406.666667	3713.333333	4385.128205	4611.794872	4630.256410	4523.076923	4026.666667	4105.128205	4514.871795	4437.948718	4269.230769	3948.717949	1737.000000	1678.000000	28.180000	0.000000	0.000000	0.000000	0.000000	1	1	0	0	0	0	0	0	0	0	0	0	0	0	0	0	0	0	0	1	0.000	0.000
102.000000	4354.358974	4386.153846	4406.666667	3714.871795	4385.641026	4614.358974	4630.256410	4522.564103	4023.589744	4104.615385	4515.897436	4436.410256	4269.230769	3953.846154	1737.000000	1678.000000	28.188000	0.000000	0.000000	0.000000	0.000000	1	1	0	0	0	0	0	0	0	0	0	0	0	0	0	0	0	0	0	1	0.000	0.000
103.000000	4358.461538	4388.205128	4407.692308	3714.358974	4383.589744	4611.794872	4629.743590	4522.051282	4022.564103	4104.615385	4514.871795	4438.461538	4268.717949	3956.410256	1737.000000	1678.000000	28.200000	0.000000	0.000000	0.000000	0.000000	1	1	0	0	0	0	0	0	0	0	0	0	0	0	0	0	0	0	0	1	0.000	0.000
104.000000	4358.461538	4386.666667	4408.717949	3714.358974	4384.102564	4611.794872	4630.256410	4522.564103	4024.615385	4104.615385	4515.897436	4439.487179	4268.205128	3949.230769	1738.000000	1678.000000	28.203000	0.000000	0.000000	0.000000	0.000000	1	1	0	0	0	0	0	0	0	0	0	0	0	0	0	0	0	0	0	1	0.000	0.000
105.000000	4353.846154	4383.589744	4408.205128	3715.384615	4386.666667	4613.333333	4630.769231	4521.025641	4025.641026	4105.641026	4518.461538	4440.000000	4266.153846	3950.256410	1736.000000	1679.000000	28.211000	0.000000	0.000000	0.000000	0.000000	1	1	0	0	0	0	0	0	0	0	0	0	0	0	0	0	0	0	0	1	0.000	0.000
106.000000	4355.897436	4385.641026	4406.153846	3713.333333	4386.666667	4615.384615	4631.282051	4522.051282	4024.615385	4106.666667	4516.923077	4437.435897	4265.641026	3955.897436	1737.000000	1678.000000	28.219000	0.000000	0.000000	0.000000	0.000000	1	1	0	0	0	0	0	0	0	0	0	0	0	0	0	0	0	0	0	1	0.000	0.000
107.000000	4358.974359	4388.205128	4408.205128	3713.333333	4385.641026	4615.384615	4629.743590	4523.076923	4024.102564	4103.589744	4515.897436	4437.435897	4268.205128	3954.358974	1736.000000	1678.000000	28.231000	0.000000	0.000000	0.000000	0.000000	1	1	0	0	0	0	0	0	0	0	0	0	0	0	0	0	0	0	0	1	0.000	0.000
108.000000	4356.410256	4386.666667	4410.256410	3715.897436	4386.153846	4614.871795	4630.769231	4522.564103	4025.128205	4103.076923	4518.461538	4438.461538	4269.230769	3952.820513	1737.000000	1678.000000	28.235000	0.000000	0.000000	0.000000	0.000000	1	1	0	0	0	0	0	0	0	0	0	0	0	0	0	0	0	0	0	1	0.000	0.000
109.000000	4353.846154	4385.641026	4408.205128	3711.794872	4384.615385	4614.871795	4632.307692	4523.076923	4024.615385	4105.128205	4519.487179	4439.487179	4265.128205	3953.846154	1737.000000	1677.000000	28.243000	0.000000	0.000000	0.000000	0.000000	1	1	0	0	0	0	0	0	0	0	0	0	0	0	0	0	0	0	0	1	0.000	0.000
110.000000	4355.384615	4386.153846	4405.128205	3708.717949	4384.102564	4613.333333	4631.794872	4523.076923	4022.051282	4100.512821	4518.461538	4438.974359	4261.025641	3954.871795	1737.000000	1678.000000	28.250000	0.000000	0.000000	0.000000	0.000000	1	1	0	0	0	0	0	0	0	0	0	0	0	0	0	0	0	0	0	1	0.000	0.000
111.000000	4358.461538	4386.153846	4406.153846	3714.358974	4385.641026	4610.769231	4630.769231	4522.564103	4021.538462	4098.461538	4517.435897	4435.897436	4264.102564	3953.333333	1738.000000	1677.000000	28.265000	0.000000	0.000000	0.000000	0.000000	1	1	0	0	0	0	0	0	0	0	0	0	0	0	0	0	0	0	0	1	0.000	0.000
112.000000	4357.948718	4386.666667	4408.717949	3716.410256	4384.615385	4612.307692	4632.307692	4522.051282	4022.051282	4100.512821	4517.435897	4438.461538	4269.230769	3952.820513	1737.000000	1678.000000	28.268000	0.000000	0.000000	0.000000	0.000000	1	1	0	0	0	0	0	0	0	0	0	0	0	0	0	0	0	0	0	1	0.000	0.000
113.000000	4356.923077	4386.666667	4406.666667	3712.307692	4383.076923	4612.820513	4632.820513	4522.564103	4022.564103	4100.512821	4514.358974	4441.025641	4269.230769	3952.307692	1737.000000	1678.000000	28.280000	0.000000	0.000000	0.000000	0.000000	1	1	0	0	0	0	0	0	0	0	0	0	0	0	0	0	0	0	0	1	0.000	0.000
114.000000	4358.461538	4386.153846	4406.153846	3712.307692	4384.615385	4610.256410	4631.282051	4521.538462	4023.076923	4101.538462	4516.923077	4438.974359	4268.205128	3952.820513	1737.000000	1678.000000	28.284000	0.000000	0.000000	0.000000	0.000000	1	1	0	0	0	0	0	0	0	0	0	0	0	0	0	0	0	0	0	1	0.000	0.000
115.000000	4356.923077	4385.641026	4407.692308	3713.846154	4386.153846	4612.307692	4631.794872	4522.051282	4024.102564	4105.641026	4521.025641	4436.410256	4267.692308	3954.358974	1737.000000	1678.000000	28.298000	0.000000	0.000000	0.000000	0.000000	1	1	0	0	0	0	0	0	0	0	0	0	0	0	0	0	0	0	0	1	0.000	0.000
116.000000	4353.333333	4386.666667	4407.692308	3713.846154	4384.102564	4613.846154	4631.794872	4522.051282	4024.102564	4104.615385	4520.000000	4439.487179	4267.179487	3955.384615	1737.000000	1678.000000	28.298000	0.000000	0.000000	0.000000	0.000000	1	1	0	0	0	0	0	0	0	0	0	0	0	0	0	0	0	0	0	1	0.000	0.000
117.000000	4355.897436	4389.230769	4405.128205	3711.794872	4383.589744	4610.769231	4631.282051	4523.076923	4023.589744	4102.564103	4516.410256	4438.461538	4266.153846	3950.769231	1737.000000	1678.000000	28.305000	0.000000	0.000000	0.000000	0.000000	1	1	0	0	0	0	0	0	0	0	0	0	0	0	0	0	0	0	0	1	0.000	0.000
118.000000	4358.461538	4388.205128	4406.666667	3710.256410	4384.615385	4610.769231	4630.256410	4522.051282	4023.076923	4104.615385	4517.948718	4438.461538	4265.641026	3949.743590	1736.000000	1678.000000	28.314000	0.000000	0.000000	0.000000	0.000000	1	1	0	0	0	0	0	0	0	0	0	0	0	0	0	0	0	0	0	1	0.000	0.000
119.000000	4355.384615	4384.615385	4408.205128	3712.307692	4386.153846	4614.871795	4630.256410	4521.538462	4024.102564	4103.076923	4520.000000	4437.435897	4266.666667	3954.871795	1737.000000	1679.000000	28.327000	0.000000	0.000000	0.000000	0.000000	1	1	0	0	0	0	0	0	0	0	0	0	0	0	0	0	0	0	0	1	0.000	0.000
120.000000	4355.384615	4386.666667	4408.205128	3714.358974	4383.076923	4613.333333	4629.743590	4522.564103	4025.641026	4100.512821	4520.000000	4438.461538	4268.717949	3956.923077	1737.000000	1677.000000	28.331000	0.000000	0.000000	0.000000	0.000000	1	1	0	0	0	0	0	0	0	0	0	0	0	0	0	0	0	0	0	1	0.000	0.000
121.000000	4358.461538	4390.769231	4407.692308	3712.820513	4384.102564	4612.307692	4630.256410	4523.076923	4026.666667	4103.076923	4522.051282	4437.948718	4266.666667	3952.820513	1737.000000	1679.000000	28.336000	0.000000	0.000000	0.000000	0.000000	1	1	0	0	0	0	0	0	0	0	0	0	0	0	0	0	0	0	0	1	0.000	0.000
122.000000	4355.897436	4389.230769	4407.692308	3712.820513	4387.692308	4614.871795	4629.743590	4522.051282	4026.153846	4105.128205	4522.564103	4440.512821	4265.128205	3953.333333	1738.000000	1677.000000	28.344000	0.000000	0.000000	0.000000	0.000000	1	1	0	0	0	0	0	0	0	0	0	0	0	0	0	0	0	0	0	1	0.000	0.000
123.000000	4354.358974	4387.179487	4408.205128	3714.358974	4387.692308	4612.820513	4631.282051	4521.538462	4024.102564	4104.615385	4518.461538	4439.487179	4266.666667	3954.871795	1736.000000	1678.000000	28.357000	0.000000	0.000000	0.000000	0.000000	1	1	0	0	0	0	0	0	0	0	0	0	0	0	0	0	0	0	0	1	0.000	0.000
124.000000	4356.410256	4387.692308	4408.717949	3713.333333	4384.102564	4611.794872	4630.769231	4521.538462	4023.076923	4104.102564	4517.435897	4437.948718	4267.179487	3953.333333	1738.000000	1678.000000	28.361000	0.000000	0.000000	0.000000	0.000000	1	1	0	0	0	0	0	0	0	0	0	0	0	0	0	0	0	0	0	1	0.000	0.000
125.000000	4356.410256	4387.179487	4409.230769	3712.307692	4381.538462	4613.846154	4628.205128	4522.051282	4024.102564	4104.102564	4517.435897	4438.974359	4267.179487	3951.794872	1736.000000	1678.000000	28.368000	0.000000	0.000000	0.000000	0.000000	1	1	0	0	0	0	0	0	0	0	0	0	0	0	0	0	0	0	0	1	0.000	0.000
126.000000	4353.846154	4388.205128	4409.230769	3712.820513	4382.051282	4613.333333	4631.794872	4522.051282	4025.128205	4104.102564	4515.897436	4440.000000	4265.641026	3952.307692	1737.000000	1678.000000	28.375000	0.000000	0.000000	0.000000	0.000000	1	1	0	0	0	0	0	0	0	0	0	0	0	0	0	0	0	0	0	1	0.000	0.000
127.000000	4353.846154	4388.717949	4407.692308	3712.820513	4384.615385	4613.333333	4635.897436	4521.538462	4024.102564	4104.102564	4515.897436	4438.461538	4266.153846	3954.358974	1736.000000	1678.000000	28.387000	0.000000	0.000000	0.000000	0.000000	1	1	0	0	0	0	0	0	0	0	0	0	0	0	0	0	0	0	0	1	0.000	0.000
128.000000	4357.948718	4386.153846	4406.666667	3710.256410	4385.128205	4615.384615	4631.282051	4522.051282	4024.615385	4103.076923	4516.410256	4436.923077	4268.205128	3955.897436	1736.000000	1678.000000	28.391000	0.000000	0.000000	0.000000	0.000000	1	1	0	0	0	0	0	0	0	0	0	0	0	0	0	0	0	0	0	1	0.000	0.000
0.000000	4360.512821	4385.641026	4408.205128	3709.230769	4383.076923	4614.871795	4629.743590	4523.589744	4025.128205	4103.589744	4516.410256	4438.461538	4266.666667	3953.846154	1736.000000	1678.000000	28.399000	0.000000	0.000000	0.000000	0.000000	1	1	0	0	0	0	0	0	0	0	0	0	0	0	0	0	0	0	0	1	0.000	0.000
1.000000	4357.948718	4389.743590	4408.205128	3713.333333	4385.128205	4614.358974	4633.333333	4524.102564	4024.102564	4104.615385	4517.435897	4437.435897	4265.128205	3952.307692	1737.000000	1678.000000	28.407000	0.000000	0.000000	0.000000	0.000000	1	1	0	0	0	0	0	0	0	0	0	0	0	0	0	0	0	0	0	1	0.000	0.000
2.000000	4353.333333	4389.230769	4408.205128	3715.384615	4387.179487	4613.846154	4631.282051	4520.512821	4022.051282	4103.076923	4518.461538	4438.974359	4268.205128	3953.333333	1737.000000	1677.000000	28.419000	0.000000	0.000000	0.000000	0.000000	1	1	0	0	0	0	0	0	0	0	0	0	0	0	0	0	0	0	0	1	0.000	0.000
3.000000	4354.871795	4385.641026	4407.692308	3713.846154	4384.615385	4614.871795	4629.743590	4521.025641	4021.025641	4103.076923	4515.897436	4438.974359	4270.769231	3952.307692	1737.000000	1679.000000	28.423000	0.000000	0.000000	0.000000	0.000000	1	1	0	0	0	0	0	0	0	0	0	0	0	0	0	0	0	0	0	1	0.000	0.000
4.000000	4358.974359	4385.128205	4405.641026	3712.820513	4382.051282	4615.384615	4630.769231	4523.076923	4022.564103	4106.153846	4514.871795	4440.000000	4268.205128	3950.769231	1738.000000	1678.000000	28.430000	0.000000	0.000000	0.000000	0.000000	1	1	0	0	0	0	0	0	0	0	0	0	0	0	0	0	0	0	0	1	0.000	0.000
5.000000	4357.948718	4386.153846	4403.589744	3713.333333	4382.564103	4611.794872	4630.769231	4523.076923	4024.615385	4103.589744	4516.923077	4438.461538	4265.641026	3951.794872	1737.000000	1678.000000	28.438000	0.000000	0.000000	0.000000	0.000000	1	1	0	0	0	0	0	0	0	0	0	0	0	0	0	0	0	0	0	1	0.000	0.000
6.000000	4354.358974	4385.641026	4405.641026	3714.358974	4383.589744	4608.205128	4632.307692	4519.487179	4023.589744	4097.435897	4520.512821	4438.974359	4266.153846	3953.846154	1737.000000	1678.000000	28.450000	0.000000	0.000000	0.000000	0.000000	1	1	0	0	0	0	0	0	0	0	0	0	0	0	0	0	0	0	0	1	0.000	0.000
7.000000	4354.358974	4386.666667	4407.179487	3712.820513	4385.641026	4611.794872	4634.358974	4521.538462	4024.102564	4098.461538	4517.948718	4438.974359	4267.179487	3952.820513	1737.000000	1678.000000	28.454000	0.000000	0.000000	0.000000	0.000000	1	1	0	0	0	0	0	0	0	0	0	0	0	0	0	0	0	0	0	1	0.000	0.000
8.000000	4355.897436	4386.666667	4406.153846	3710.769231	4384.615385	4612.820513	4631.794872	4523.589744	4024.615385	4100.000000	4514.871795	4441.025641	4268.205128	3952.307692	1738.000000	1678.000000	28.461000	0.000000	0.000000	0.000000	0.000000	1	1	0	0	0	0	0	0	0	0	0	0	0	0	0	0	0	0	0	1	0.000	0.000
9.000000	4356.923077	4385.641026	4406.666667	3711.282051	4383.076923	4612.307692	4630.769231	4521.538462	4024.102564	4098.974359	4516.410256	4438.461538	4267.179487	3953.846154	1737.000000	1677.000000	28.469000	0.000000	0.000000	0.000000	0.000000	1	1	0	0	0	0	0	0	0	0	0	0	0	0	0	0	0	0	0	1	0.000	0.000
10.000000	4356.923077	4386.153846	4409.743590	3711.282051	4384.102564	4613.846154	4631.282051	4520.512821	4024.102564	4101.538462	4517.948718	4438.974359	4265.641026	3954.358974	1736.000000	1678.000000	28.482000	0.000000	0.000000	0.000000	0.000000	1	1	0	0	0	0	0	0	0	0	0	0	0	0	0	0	0	0	0	1	0.000	0.000
11.000000	4357.435897	4387.179487	4409.743590	3711.282051	4385.128205	4612.820513	4630.256410	4522.051282	4023.589744	4104.615385	4515.384615	4441.538462	4265.641026	3952.820513	1737.000000	1677.000000	28.486000	0.000000	0.000000	0.000000	0.000000	1	1	0	0	0	0	0	0	0	0	0	0	0	0	0	0	0	0	0	1	0.000	0.000
12.000000	4357.435897	4386.666667	4407.692308	3713.333333	4384.615385	4610.769231	4630.256410	4521.538462	4022.051282	4104.615385	4516.410256	4439.487179	4266.153846	3950.256410	1737.000000	1678.000000	28.493000	0.000000	0.000000	0.000000	0.000000	1	1	0	0	0	0	0	0	0	0	0	0	0	0	0	0	0	0	0	1	0.000	0.000
13.000000	4357.948718	4385.641026	4405.641026	3714.358974	4382.564103	4613.333333	4631.282051	4520.000000	4022.564103	4102.051282	4518.974359	4438.974359	4267.179487	3952.307692	1737.000000	1678.000000	28.502000	0.000000	0.000000	0.000000	0.000000	1	1	0	0	0	0	0	0	0	0	0	0	0	0	0	0	0	0	0	1	0.000	0.000
14.000000	4357.435897	4386.153846	4407.692308	3713.846154	4382.564103	4614.871795	4631.282051	4521.538462	4023.076923	4100.000000	4517.435897	4441.025641	4267.692308	3954.871795	1737.000000	1679.000000	28.516000	0.000000	0.000000	0.000000	0.000000	1	1	0	0	0	0	0	0	0	0	0	0	0	0	0	0	0	0	0	1	0.000	0.000
15.000000	4358.461538	4387.179487	4409.230769	3713.333333	4385.641026	4611.282051	4633.333333	4524.102564	4024.102564	4101.538462	4516.923077	4438.974359	4267.692308	3954.871795	1738.000000	1677.000000	28.516000	0.000000	0.000000	0.000000	0.000000	1	1	0	0	0	0	0	0	0	0	0	0	0	0	0	0	0	0	0	1	0.000	0.000
16.000000	4356.923077	4388.205128	4407.692308	3713.846154	4386.666667	4610.769231	4634.871795	4523.589744	4025.641026	4106.153846	4518.974359	4435.384615	4267.692308	3952.307692	1736.000000	1678.000000	28.524000	0.000000	0.000000	0.000000	0.000000	1	1	0	0	0	0	0	0	0	0	0	0	0	0	0	0	0	0	0	1	0.000	0.000
17.000000	4352.307692	4387.179487	4408.205128	3714.871795	4383.076923	4613.333333	4632.307692	4521.025641	4024.102564	4105.641026	4520.512821	4440.512821	4269.743590	3953.846154	1737.000000	1678.000000	28.532000	0.000000	0.000000	0.000000	0.000000	1	1	0	0	0	0	0	0	0	0	0	0	0	0	0	0	0	0	0	1	0.000	0.000
18.000000	4354.871795	4385.641026	4408.205128	3712.820513	4382.564103	4613.846154	4629.743590	4520.512821	4022.564103	4103.076923	4518.974359	4437.948718	4269.230769	3954.358974	1736.000000	1677.000000	28.545000	0.000000	0.000000	0.000000	0.000000	1	1	0	0	0	0	0	0	0	0	0	0	0	0	0	0	0	0	0	1	0.000	0.000
19.000000	4359.487179	4385.641026	4407.692308	3709.743590	4383.076923	4612.820513	4631.282051	4521.538462	4023.076923	4105.128205	4518.461538	4433.333333	4266.666667	3954.871795	1736.000000	1678.000000	28.548000	0.000000	0.000000	0.000000	0.000000	1	1	0	0	0	0	0	0	0	0	0	0	0	0	0	0	0	0	0	1	0.000	0.000
20.000000	4356.410256	4387.179487	4407.179487	3712.307692	4382.051282	4612.307692	4632.307692	4521.025641	4022.051282	4106.153846	4517.948718	4434.358974	4266.666667	3954.358974	1737.000000	1678.000000	28.556000	0.000000	0.000000	0.000000	0.000000	1	1	0	0	0	0	0	0	0	0	0	0	0	0	0	0	0	0	0	1	0.000	0.000
21.000000	4352.820513	4387.179487	4408.717949	3715.384615	4383.589744	4613.846154	4629.743590	4521.025641	4022.051282	4105.641026	4515.897436	4438.974359	4268.205128	3953.846154	1737.000000	1678.000000	28.563000	0.000000	0.000000	0.000000	0.000000	1	1	0	0	0	0	0	0	0	0	0	0	0	0	0	0	0	0	0	1	0.000	0.000
22.000000	4355.384615	4385.641026	4406.153846	3713.846154	4386.153846	4615.384615	4629.743590	4523.589744	4025.128205	4105.128205	4515.384615	4436.410256	4269.743590	3951.794872	1738.000000	1678.000000	28.576000	0.000000	0.000000	0.000000	0.000000	1	1	0	0	0	0	0	0	0	0	0	0	0	0	0	0	0	0	0	1	0.000	0.000
23.000000	4356.923077	4386.153846	4405.641026	3712.820513	4385.128205	4612.820513	4633.333333	4524.102564	4025.641026	4103.076923	4518.974359	4437.435897	4268.717949	3952.307692	1737.000000	1678.000000	28.579000	0.000000	0.000000	0.000000	0.000000	1	1	0	0	0	0	0	0	0	0	0	0	0	0	0	0	0	0	0	1	0.000	0.000
24.000000	4357.435897	4388.205128	4409.230769	3713.333333	4384.615385	4611.282051	4637.435897	4522.564103	4025.128205	4103.589744	4518.974359	4440.512821	4266.153846	3954.358974	1737.000000	1677.000000	28.587000	0.000000	0.000000	0.000000	0.000000	1	1	0	0	0	0	0	0	0	0	0	0	0	0	0	0	0	0	0	1	0.000	0.000
25.000000	4355.897436	4387.692308	4409.743590	3714.871795	4383.589744	4613.333333	4633.846154	4521.538462	4025.128205	4105.641026	4516.923077	4440.512821	4267.179487	3954.871795	1737.000000	1678.000000	28.594000	0.000000	0.000000	0.000000	0.000000	1	1	0	0	0	0	0	0	0	0	0	0	0	0	0	0	0	0	0	1	0.000	0.000
26.000000	4354.358974	4388.717949	4407.179487	3714.358974	4384.102564	4614.871795	4629.743590	4522.564103	4024.615385	4103.589744	4514.871795	4438.461538	4269.230769	3951.794872	1737.000000	1677.000000	28.607000	0.000000	0.000000	0.000000	0.000000	1	1	0	0	0	0	0	0	0	0	0	0	0	0	0	0	0	0	0	1	0.000	0.000
27.000000	4356.923077	4387.692308	4407.692308	3711.794872	4386.153846	4612.307692	4630.769231	4524.102564	4023.076923	4100.512821	4516.410256	4438.461538	4269.230769	3950.769231	1738.000000	1678.000000	28.610000	0.000000	0.000000	0.000000	0.000000	1	1	0	0	0	0	0	0	0	0	0	0	0	0	0	0	0	0	0	1	0.000	0.000
28.000000	4358.974359	4386.153846	4408.205128	3711.794872	4385.641026	4610.769231	4633.333333	4523.589744	4023.076923	4102.564103	4517.948718	4439.487179	4268.205128	3953.333333	1736.000000	1677.000000	28.618000	0.000000	0.000000	0.000000	0.000000	1	1	0	0	0	0	0	0	0	0	0	0	0	0	0	0	0	0	0	1	0.000	0.000
29.000000	4356.923077	4386.666667	4407.692308	3713.333333	4383.076923	4612.820513	4631.794872	4522.564103	4024.615385	4105.128205	4517.948718	4440.000000	4268.717949	3954.358974	1737.000000	1678.000000	28.626000	0.000000	0.000000	0.000000	0.000000	1	1	0	0	0	0	0	0	0	0	0	0	0	0	0	0	0	0	0	1	0.000	0.000
30.000000	4357.948718	4387.179487	4408.205128	3712.307692	4381.538462	4612.307692	4630.769231	4523.589744	4023.076923	4104.102564	4516.923077	4439.487179	4269.230769	3951.794872	1737.000000	1677.000000	28.638000	0.000000	0.000000	0.000000	0.000000	1	1	0	0	0	0	0	0	0	0	0	0	0	0	0	0	0	0	0	1	0.000	0.000
31.000000	4356.410256	4386.666667	4406.153846	3713.333333	4382.051282	4609.230769	4632.307692	4523.076923	4022.051282	4101.025641	4515.897436	4438.461538	4269.743590	3951.282051	1737.000000	1679.000000	28.641000	0.000000	0.000000	0.000000	0.000000	1	1	0	0	0	0	0	0	0	0	0	0	0	0	0	0	0	0	0	1	0.000	0.000
32.000000	4351.794872	4387.692308	4404.615385	3713.846154	4384.615385	4610.769231	4632.820513	4519.487179	4023.589744	4102.051282	4516.410256	4440.512821	4270.769231	3953.333333	1737.000000	1677.000000	28.649000	0.000000	0.000000	0.000000	0.000000	1	1	0	0	0	0	0	0	0	0	0	0	0	0	0	0	0	0	0	1	0.000	0.000
33.000000	4352.307692	4387.179487	4407.179487	3710.769231	4384.615385	4614.871795	4633.333333	4521.025641	4024.615385	4104.102564	4517.435897	4438.974359	4269.230769	3952.307692	1737.000000	1679.000000	28.657000	0.000000	0.000000	0.000000	0.000000	1	1	0	0	0	0	0	0	0	0	0	0	0	0	0	0	0	0	0	1	0.000	0.000
34.000000	4356.923077	4386.666667	4408.717949	3709.743590	4381.538462	4614.358974	4632.307692	4523.076923	4024.615385	4102.564103	4518.461538	4436.923077	4266.153846	3953.333333	1738.000000	1678.000000	28.671000	0.000000	0.000000	0.000000	0.000000	1	1	0	0	0	0	0	0	0	0	0	0	0	0	0	0	0	0	0	1	0.000	0.000
35.000000	4357.435897	4388.205128	4406.666667	3714.358974	4384.102564	4613.333333	4631.282051	4522.051282	4025.641026	4102.051282	4518.974359	4434.871795	4266.153846	3954.871795	1736.000000	1679.000000	28.673000	0.000000	0.000000	0.000000	0.000000	1	1	0	0	0	0	0	0	0	0	0	0	0	0	0	0	0	0	0	1	0.000	0.000
36.000000	4353.333333	4389.230769	4407.179487	3715.897436	4385.641026	4612.307692	4631.282051	4522.051282	4026.153846	4104.615385	4520.000000	4438.974359	4267.692308	3955.897436	1737.000000	1678.000000	28.680000	0.000000	0.000000	0.000000	0.000000	1	1	0	0	0	0	0	0	0	0	0	0	0	0	0	0	0	0	0	1	0.000	0.000
37.000000	4354.358974	4389.230769	4407.692308	3713.846154	4383.076923	4610.769231	4631.794872	4522.564103	4023.076923	4104.615385	4518.974359	4437.948718	4267.692308	3954.358974	1736.000000	1677.000000	28.689000	0.000000	0.000000	0.000000	0.000000	1	1	0	0	0	0	0	0	0	0	0	0	0	0	0	0	0	0	0	1	0.000	0.000
38.000000	4357.435897	4388.205128	4407.179487	3713.333333	4383.076923	4610.769231	4631.282051	4520.000000	4020.512821	4104.102564	4516.923077	4437.948718	4267.179487	3953.846154	1736.000000	1678.000000	28.702000	0.000000	0.000000	0.000000	0.000000	1	1	0	0	0	0	0	0	0	0	0	0	0	0	0	0	0	0	0	1	0.000	0.000
39.000000	4357.948718	4385.128205	4407.179487	3715.384615	4384.615385	4612.820513	4633.846154	4521.025641	4022.564103	4105.641026	4514.358974	4438.974359	4265.641026	3952.307692	1737.000000	1678.000000	28.704000	0.000000	0.000000	0.000000	0.000000	1	1	0	0	0	0	0	0	0	0	0	0	0	0	0	0	0	0	0	1	0.000	0.000
40.000000	4355.897436	4384.615385	4407.179487	3716.410256	4382.564103	4612.820513	4634.358974	4522.564103	4024.102564	4104.615385	4513.333333	4441.025641	4265.641026	3950.769231	1737.000000	1678.000000	28.712000	0.000000	0.000000	0.000000	0.000000	1	1	0	0	0	0	0	0	0	0	0	0	0	0	0	0	0	0	0	1	0.000	0.000
41.000000	4355.384615	4388.205128	4406.666667	3713.333333	4382.564103	4611.794872	4632.820513	4522.051282	4023.589744	4103.589744	4516.410256	4438.974359	4267.179487	3952.307692	1737.000000	1678.000000	28.720000	0.000000	0.000000	0.000000	0.000000	1	1	0	0	0	0	0	0	0	0	0	0	0	0	0	0	0	0	0	1	0.000	0.000
42.000000	4354.871795	4387.692308	4407.692308	3710.256410	4384.102564	4611.794872	4631.794872	4520.512821	4024.102564	4103.589744	4521.025641	4438.461538	4268.205128	3953.333333	1736.000000	1678.000000	28.734000	0.000000	0.000000	0.000000	0.000000	1	1	0	0	0	0	0	0	0	0	0	0	0	0	0	0	0	0	0	1	0.000	0.000
43.000000	4355.384615	4385.128205	4407.179487	3712.307692	4382.051282	4612.820513	4632.820513	4520.512821	4027.692308	4103.076923	4519.487179	4436.923077	4267.692308	3952.307692	1737.000000	1677.000000	28.736000	0.000000	0.000000	0.000000	0.000000	1	1	0	0	0	0	0	0	0	0	0	0	0	0	0	0	0	0	0	1	0.000	0.000
44.000000	4354.358974	4384.615385	4405.641026	3712.820513	4381.538462	4611.282051	4632.307692	4520.000000	4028.205128	4102.564103	4516.923077	4437.435897	4266.666667	3953.333333	1737.000000	1679.000000	28.743000	0.000000	0.000000	0.000000	0.000000	1	1	0	0	0	0	0	0	0	0	0	0	0	0	0	0	0	0	0	1	0.000	0.000
45.000000	4352.820513	4386.153846	4405.641026	3711.794872	4384.615385	4611.794872	4630.769231	4518.461538	4022.564103	4103.076923	4516.923077	4438.974359	4268.205128	3952.307692	1737.000000	1678.000000	28.751000	0.000000	0.000000	0.000000	0.000000	1	1	0	0	0	0	0	0	0	0	0	0	0	0	0	0	0	0	0	1	0.000	0.000
46.000000	4356.410256	4387.692308	4407.179487	3714.358974	4386.153846	4615.384615	4631.282051	4519.487179	4020.512821	4102.564103	4518.461538	4438.974359	4268.717949	3949.743590	1737.000000	1678.000000	28.763000	0.000000	0.000000	0.000000	0.000000	1	1	0	0	0	0	0	0	0	0	0	0	0	0	0	0	0	0	0	1	0.000	0.000
47.000000	4359.487179	4388.205128	4408.717949	3715.897436	4384.102564	4614.871795	4631.794872	4522.051282	4023.589744	4102.564103	4518.461538	4440.512821	4265.641026	3952.307692	1738.000000	1678.000000	28.766000	0.000000	0.000000	0.000000	0.000000	1	1	0	0	0	0	0	0	0	0	0	0	0	0	0	0	0	0	0	1	0.000	0.000
48.000000	4357.435897	4388.717949	4407.692308	3712.307692	4384.102564	4611.282051	4631.282051	4522.564103	4024.102564	4103.589744	4517.435897	4438.974359	4264.102564	3955.897436	1736.000000	1677.000000	28.774000	0.000000	0.000000	0.000000	0.000000	1	1	0	0	0	0	0	0	0	0	0	0	0	0	0	0	0	0	0	1	0.000	0.000
49.000000	4353.846154	4388.205128	4408.205128	3711.794872	4387.179487	4611.282051	4630.256410	4521.538462	4022.564103	4102.051282	4518.461538	4438.461538	4267.179487	3954.358974	1737.000000	1679.000000	28.783000	0.000000	0.000000	0.000000	0.000000	1	1	0	0	0	0	0	0	0	0	0	0	0	0	0	0	0	0	0	1	0.000	0.000
50.000000	4355.384615	4386.666667	4408.205128	3713.333333	4386.153846	4611.794872	4631.282051	4521.025641	4022.564103	4103.076923	4517.435897	4438.461538	4267.692308	3952.820513	1738.000000	1677.000000	28.797000	0.000000	0.000000	0.000000	0.000000	1	1	0	0	0	0	0	0	0	0	0	0	0	0	0	0	0	0	0	1	0.000	0.000
51.000000	4358.461538	4387.179487	4406.666667	3713.846154	4384.102564	4610.256410	4631.282051	4520.512821	4023.076923	4104.615385	4516.410256	4438.974359	4265.641026	3954.358974	1736.000000	1678.000000	28.798000	0.000000	0.000000	0.000000	0.000000	1	1	0	0	0	0	0	0	0	0	0	0	0	0	0	0	0	0	0	1	0.000	0.000
52.000000	4359.487179	4389.230769	4404.615385	3713.333333	4386.666667	4611.794872	4630.769231	4523.076923	4023.076923	4102.564103	4516.410256	4435.384615	4265.128205	3951.794872	1737.000000	1678.000000	28.806000	0.000000	0.000000	0.000000	0.000000	1	1	0	0	0	0	0	0	0	0	0	0	0	0	0	0	0	0	0	1	0.000	0.000
53.000000	4356.923077	4386.666667	4405.641026	3713.846154	4385.128205	4613.333333	4631.794872	4523.589744	4023.589744	4101.538462	4518.974359	4438.461538	4265.641026	3951.794872	1736.000000	1678.000000	28.814000	0.000000	0.000000	0.000000	0.000000	1	1	0	0	0	0	0	0	0	0	0	0	0	0	0	0	0	0	0	1	0.000	0.000
54.000000	4355.897436	4386.153846	4407.179487	3714.358974	4382.051282	4612.820513	4631.794872	4521.538462	4023.589744	4103.076923	4518.974359	4440.512821	4265.128205	3955.384615	1737.000000	1678.000000	28.828000	0.000000	0.000000	0.000000	0.000000	1	1	0	0	0	0	0	0	0	0	0	0	0	0	0	0	0	0	0	1	0.000	0.000
55.000000	4358.461538	4389.743590	4406.666667	3714.358974	4383.076923	4611.794872	4628.717949	4521.025641	4022.564103	4099.487179	4515.384615	4440.512821	4265.641026	3956.410256	1736.000000	1678.000000	28.830000	0.000000	0.000000	0.000000	0.000000	1	1	0	0	0	0	0	0	0	0	0	0	0	0	0	0	0	0	0	1	0.000	0.000
56.000000	4358.461538	4388.205128	4406.153846	3714.871795	4383.589744	4611.794872	4628.717949	4523.589744	4022.564103	4096.410256	4515.384615	4438.461538	4266.666667	3952.307692	1738.000000	1678.000000	28.838000	0.000000	0.000000	0.000000	0.000000	1	1	0	0	0	0	0	0	0	0	0	0	0	0	0	0	0	0	0	1	0.000	0.000
57.000000	4355.897436	4384.615385	4408.205128	3713.333333	4382.051282	4612.820513	4630.256410	4523.076923	4023.076923	4102.564103	4519.487179	4438.461538	4268.205128	3951.282051	1736.000000	1678.000000	28.846000	0.000000	0.000000	0.000000	0.000000	1	1	0	0	0	0	0	0	0	0	0	0	0	0	0	0	0	0	0	1	0.000	0.000
58.000000	4356.410256	4386.666667	4408.717949	3712.820513	4383.076923	4615.384615	4629.230769	4521.025641	4023.076923	4105.128205	4519.487179	4438.461538	4268.205128	3951.794872	1737.000000	1679.000000	28.860000	0.000000	0.000000	0.000000	0.000000	1	1	0	0	0	0	0	0	0	0	0	0	0	0	0	0	0	0	0	1	0.000	0.000
59.000000	4355.897436	4386.666667	4407.179487	3714.358974	4383.589744	4613.846154	4629.743590	4521.538462	4022.564103	4101.538462	4516.923077	4438.974359	4267.692308	3952.307692	1737.000000	1677.000000	28.860000	0.000000	0.000000	0.000000	0.000000	1	1	0	0	0	0	0	0	0	0	0	0	0	0	0	0	0	0	0	1	0.000	0.000
60.000000	4353.846154	4384.102564	4407.179487	3713.333333	4384.615385	4608.717949	4632.820513	4521.538462	4023.076923	4102.051282	4517.948718	4438.974359	4266.666667	3953.333333	1736.000000	1679.000000	28.869000	0.000000	0.000000	0.000000	0.000000	1	1	0	0	0	0	0	0	0	0	0	0	0	0	0	0	0	0	0	1	0.000	0.000
61.000000	4355.384615	4385.641026	4408.205128	3710.769231	4385.128205	4607.179487	4632.307692	4522.051282	4023.589744	4104.615385	4518.461538	4437.948718	4265.641026	3952.820513	1737.000000	1677.000000	28.877000	0.000000	0.000000	0.000000	0.000000	1	1	0	0	0	0	0	0	0	0	0	0	0	0	0	0	0	0	0	1	0.000	0.000
62.000000	4357.435897	4387.179487	4408.205128	3712.307692	4384.102564	4610.769231	4630.256410	4522.564103	4024.102564	4106.153846	4516.923077	4440.000000	4266.153846	3950.256410	1736.000000	1679.000000	28.890000	0.000000	0.000000	0.000000	0.000000	1	1	0	0	0	0	0	0	0	0	0	0	0	0	0	0	0	0	0	1	0.000	0.000
63.000000	4356.923077	4387.179487	4407.692308	3714.358974	4384.615385	4614.358974	4631.282051	4522.564103	4025.128205	4105.128205	4516.410256	4440.512821	4267.179487	3950.256410	1737.000000	1678.000000	28.892000	0.000000	0.000000	0.000000	0.000000	1	1	0	0	0	0	0	0	0	0	0	0	0	0	0	0	0	0	0	1	0.000	0.000
64.000000	4356.923077	4388.205128	4406.153846	3713.333333	4383.589744	4614.871795	4631.282051	4521.538462	4025.128205	4102.564103	4516.410256	4438.461538	4268.717949	3953.846154	1736.000000	1678.000000	28.899000	0.000000	0.000000	0.000000	0.000000	1	1	0	0	0	0	0	0	0	0	0	0	0	0	0	0	0	0	0	1	0.000	0.000
65.000000	4356.410256	4387.179487	4403.589744	3713.333333	4381.538462	4613.846154	4630.256410	4523.076923	4024.102564	4102.051282	4516.923077	4435.897436	4268.205128	3954.358974	1736.000000	1678.000000	28.907000	0.000000	0.000000	0.000000	0.000000	1	1	0	0	0	0	0	0	0	0	0	0	0	0	0	0	0	0	0	1	0.000	0.000
66.000000	4354.358974	4384.615385	4405.641026	3714.358974	4382.564103	4612.307692	4631.794872	4524.102564	4023.589744	4104.615385	4518.461538	4439.487179	4266.153846	3954.871795	1737.000000	1678.000000	28.920000	0.000000	0.000000	0.000000	0.000000	1	1	0	0	0	0	0	0	0	0	0	0	0	0	0	0	0	0	0	1	0.000	0.000
67.000000	4354.358974	4385.128205	4407.692308	3713.846154	4385.128205	4612.820513	4633.333333	4522.051282	4023.076923	4105.128205	4516.923077	4439.487179	4267.179487	3954.358974	1737.000000	1678.000000	28.924000	0.000000	0.000000	0.000000	0.000000	1	1	0	0	0	0	0	0	0	0	0	0	0	0	0	0	0	0	0	1	0.000	0.000
68.000000	4353.846154	4385.641026	4406.153846	3714.358974	4384.102564	4611.282051	4631.282051	4520.000000	4022.051282	4104.102564	4516.923077	4438.461538	4267.692308	3954.358974	1737.000000	1678.000000	28.931000	0.000000	0.000000	0.000000	0.000000	1	1	0	0	0	0	0	0	0	0	0	0	0	0	0	0	0	0	0	1	0.000	0.000
69.000000	4353.846154	4386.153846	4404.615385	3714.358974	4386.666667	4609.743590	4629.743590	4520.512821	4022.051282	4104.615385	4516.923077	4435.897436	4264.615385	3953.846154	1738.000000	1679.000000	28.938000	0.000000	0.000000	0.000000	0.000000	1	1	0	0	0	0	0	0	0	0	0	0	0	0	0	0	0	0	0	1	0.000	0.000
70.000000	4354.871795	4387.179487	4407.179487	3712.307692	4386.153846	4610.256410	4630.256410	4521.025641	4023.076923	4105.128205	4517.948718	4437.948718	4265.641026	3953.333333	1737.000000	1677.000000	28.952000	0.000000	0.000000	0.000000	0.000000	1	1	0	0	0	0	0	0	0	0	0	0	0	0	0	0	0	0	0	1	0.000	0.000
71.000000	4354.871795	4388.205128	4407.179487	3711.282051	4382.564103	4612.820513	4631.282051	4521.538462	4023.589744	4105.641026	4519.487179	4436.410256	4269.743590	3953.333333	1736.000000	1679.000000	28.955000	0.000000	0.000000	0.000000	0.000000	1	1	0	0	0	0	0	0	0	0	0	0	0	0	0	0	0	0	0	1	0.000	0.000
72.000000	4353.846154	4386.666667	4405.128205	3713.333333	4383.076923	4612.820513	4629.230769	4517.948718	4024.615385	4105.128205	4519.487179	4436.923077	4269.230769	3954.358974	1737.000000	1677.000000	28.963000	0.000000	0.000000	0.000000	0.000000	1	1	0	0	0	0	0	0	0	0	0	0	0	0	0	0	0	0	0	1	0.000	0.000
73.000000	4355.384615	4386.153846	4405.641026	3713.333333	4386.153846	4612.820513	4628.205128	4518.974359	4024.102564	4102.564103	4516.923077	4438.461538	4268.205128	3953.333333	1735.000000	1678.000000	28.971000	0.000000	0.000000	0.000000	0.000000	1	1	0	0	0	0	0	0	0	0	0	0	0	0	0	0	0	0	0	1	0.000	0.000
74.000000	4357.948718	4387.692308	4408.205128	3710.769231	4386.666667	4611.282051	4629.743590	4522.564103	4022.564103	4098.974359	4516.923077	4440.512821	4268.205128	3953.846154	1738.000000	1678.000000	28.982000	0.000000	0.000000	0.000000	0.000000	1	1	0	0	0	0	0	0	0	0	0	0	0	0	0	0	0	0	0	1	0.000	0.000
75.000000	4358.461538	4387.179487	4407.179487	3711.282051	4384.615385	4609.743590	4630.769231	4521.025641	4022.051282	4097.948718	4516.923077	4439.487179	4266.153846	3955.897436	1737.000000	1677.000000	28.985000	0.000000	0.000000	0.000000	0.000000	1	1	0	0	0	0	0	0	0	0	0	0	0	0	0	0	0	0	0	1	0.000	0.000
76.000000	4355.384615	4384.615385	4407.179487	3714.871795	4383.076923	4609.230769	4631.282051	4519.487179	4023.589744	4098.461538	4516.923077	4438.974359	4266.666667	3954.358974	1737.000000	1678.000000	28.993000	0.000000	0.000000	0.000000	0.000000	1	1	0	0	0	0	0	0	0	0	0	0	0	0	0	0	0	0	0	1	0.000	0.000
77.000000	4355.384615	4386.153846	4410.769231	3714.871795	4384.102564	4610.256410	4633.846154	4520.512821	4024.102564	4100.000000	4518.974359	4439.487179	4269.743590	3952.307692	1737.000000	1678.000000	29.002000	0.000000	0.000000	0.000000	0.000000	1	1	0	0	0	0	0	0	0	0	0	0	0	0	0	0	0	0	0	1	0.000	0.000
78.000000	4357.948718	4388.205128	4410.769231	3710.769231	4383.589744	4612.307692	4634.871795	4522.051282	4023.076923	4099.487179	4517.435897	4437.948718	4268.205128	3954.358974	1737.000000	1678.000000	29.016000	0.000000	0.000000	0.000000	0.000000	1	1	0	0	0	0	0	0	0	0	0	0	0	0	0	0	0	0	0	1	0.000	0.000
79.000000	4357.948718	4387.692308	4407.179487	3711.794872	4381.538462	4613.333333	4630.256410	4521.538462	4025.128205	4097.435897	4514.871795	4437.948718	4265.128205	3955.897436	1737.000000	1678.000000	29.018000	0.000000	0.000000	0.000000	0.000000	1	1	0	0	0	0	0	0	0	0	0	0	0	0	0	0	0	0	0	1	0.000	0.000
80.000000	4355.384615	4388.205128	4406.153846	3713.333333	4384.615385	4613.846154	4628.205128	4522.564103	4027.179487	4100.000000	4516.410256	4436.923077	4264.102564	3954.358974	1737.000000	1678.000000	29.025000	0.000000	0.000000	0.000000	0.000000	1	1	0	0	0	0	0	0	0	0	0	0	0	0	0	0	0	0	0	1	0.000	0.000
81.000000	4355.384615	4388.205128	4406.153846	3712.307692	4387.179487	4613.333333	4631.282051	4521.538462	4025.641026	4106.153846	4517.435897	4436.410256	4265.128205	3953.333333	1737.000000	1678.000000	29.033000	0.000000	0.000000	0.000000	0.000000	1	1	0	0	0	0	0	0	0	0	0	0	0	0	0	0	0	0	0	1	0.000	0.000
82.000000	4356.923077	4386.153846	4405.128205	3713.333333	4384.615385	4612.307692	4632.307692	4520.512821	4023.589744	4105.641026	4515.384615	4434.358974	4267.179487	3954.358974	1738.000000	1678.000000	29.047000	0.000000	0.000000	0.000000	0.000000	1	1	0	0	0	0	0	0	0	0	0	0	0	0	0	0	0	0	0	1	0.000	0.000
83.000000	4354.871795	4385.641026	4406.153846	3713.846154	4382.564103	4611.794872	4629.230769	4521.025641	4023.076923	4102.051282	4516.410256	4436.410256	4267.692308	3954.358974	1736.000000	1678.000000	29.049000	0.000000	0.000000	0.000000	0.000000	1	1	0	0	0	0	0	0	0	0	0	0	0	0	0	0	0	0	0	1	0.000	0.000
84.000000	4353.846154	4387.179487	4407.179487	3712.307692	4384.615385	4614.358974	4630.769231	4523.076923	4022.564103	4103.076923	4517.435897	4436.410256	4266.666667	3951.282051	1736.000000	1678.000000	29.057000	0.000000	0.000000	0.000000	0.000000	1	1	0	0	0	0	0	0	0	0	0	0	0	0	0	0	0	0	0	1	0.000	0.000
85.000000	4356.923077	4386.153846	4408.205128	3714.358974	4384.615385	4614.358974	4633.333333	4523.076923	4022.564103	4104.102564	4518.974359	4436.410256	4266.666667	3950.256410	1736.000000	1678.000000	29.065000	0.000000	0.000000	0.000000	0.000000	1	1	0	0	0	0	0	0	0	0	0	0	0	0	0	0	0	0	0	1	0.000	0.000
86.000000	4355.897436	4386.153846	4407.179487	3714.358974	4382.051282	4611.282051	4631.282051	4522.564103	4024.615385	4103.076923	4516.923077	4435.897436	4266.666667	3953.333333	1737.000000	1678.000000	29.077000	0.000000	0.000000	0.000000	0.000000	1	1	0	0	0	0	0	0	0	0	0	0	0	0	0	0	0	0	0	1	0.000	0.000
87.000000	4351.282051	4385.641026	4406.666667	3712.307692	4381.538462	4609.743590	4629.230769	4521.025641	4024.615385	4104.102564	4514.871795	4440.000000	4267.692308	3954.358974	1736.000000	1677.000000	29.079000	0.000000	0.000000	0.000000	0.000000	1	1	0	0	0	0	0	0	0	0	0	0	0	0	0	0	0	0	0	1	0.000	0.000
88.000000	4354.358974	4384.615385	4408.717949	3715.897436	4384.102564	4609.743590	4631.794872	4522.051282	4023.076923	4105.128205	4514.871795	4440.512821	4268.205128	3952.307692	1737.000000	1679.000000	29.088000	0.000000	0.000000	0.000000	0.000000	1	1	0	0	0	0	0	0	0	0	0	0	0	0	0	0	0	0	0	1	0.000	0.000
89.000000	4358.974359	4386.153846	4409.743590	3715.384615	4385.641026	4610.256410	4631.282051	4522.564103	4022.051282	4103.589744	4517.435897	4439.487179	4268.205128	3952.307692	1736.000000	1678.000000	29.096000	0.000000	0.000000	0.000000	0.000000	1	1	0	0	0	0	0	0	0	0	0	0	0	0	0	0	0	0	0	1	0.000	0.000
90.000000	4356.923077	4387.692308	4406.666667	3711.794872	4385.128205	4612.307692	4630.769231	4522.564103	4024.102564	4103.076923	4518.461538	4438.974359	4267.179487	3952.307692	1736.000000	1679.000000	29.110000	0.000000	0.000000	0.000000	0.000000	1	1	0	0	0	0	0	0	0	0	0	0	0	0	0	0	0	0	0	1	0.000	0.000
91.000000	4357.435897	4388.205128	4407.179487	3713.333333	4384.102564	4613.846154	4630.256410	4522.051282	4025.641026	4104.102564	4518.461538	4440.512821	4267.692308	3952.307692	1737.000000	1677.000000	29.110000	0.000000	0.000000	0.000000	0.000000	1	1	0	0	0	0	0	0	0	0	0	0	0	0	0	0	0	0	0	1	0.000	0.000
92.000000	4361.025641	4387.692308	4408.205128	3713.846154	4384.615385	4613.333333	4631.282051	4521.538462	4025.128205	4104.615385	4517.948718	4438.974359	4269.230769	3952.820513	1736.000000	1678.000000	29.119000	0.000000	0.000000	0.000000	0.000000	1	1	0	0	0	0	0	0	0	0	0	0	0	0	0	0	0	0	0	1	0.000	0.000
93.000000	4357.948718	4386.153846	4406.153846	3713.846154	4382.051282	4612.307692	4632.307692	4522.051282	4024.102564	4105.128205	4516.410256	4437.948718	4269.230769	3952.307692	1738.000000	1678.000000	29.126000	0.000000	0.000000	0.000000	0.000000	1	1	0	0	0	0	0	0	0	0	0	0	0	0	0	0	0	0	0	1	0.000	0.000
94.000000	4353.333333	4388.717949	4405.128205	3714.358974	4380.512821	4611.794872	4630.769231	4522.051282	4023.076923	4103.589744	4518.461538	4438.974359	4269.230769	3952.307692	1737.000000	1677.000000	29.139000	0.000000	0.000000	0.000000	0.000000	1	1	0	0	0	0	0	0	0	0	0	0	0	0	0	0	0	0	0	1	0.000	0.000
95.000000	4353.333333	4390.769231	4407.179487	3710.256410	4385.128205	4614.358974	4631.794872	4521.538462	4023.076923	4102.564103	4523.076923	4437.948718	4267.692308	3954.358974	1737.000000	1678.000000	29.142000	0.000000	0.000000	0.000000	0.000000	1	1	0	0	0	0	0	0	0	0	0	0	0	0	0	0	0	0	0	1	0.000	0.000
96.000000	4353.333333	4387.179487	4409.230769	3709.743590	4385.641026	4615.384615	4631.282051	4522.051282	4023.076923	4102.564103	4521.538462	4439.487179	4266.666667	3954.871795	1737.000000	1678.000000	29.151000	0.000000	0.000000	0.000000	0.000000	1	1	0	0	0	0	0	0	0	0	0	0	0	0	0	0	0	0	0	1	0.000	0.000
97.000000	4354.871795	4385.641026	4406.153846	3712.307692	4382.051282	4613.333333	4629.230769	4521.538462	4024.102564	4102.051282	4515.897436	4437.948718	4266.666667	3952.307692	1738.000000	1678.000000	29.157000	0.000000	0.000000	0.000000	0.000000	1	1	0	0	0	0	0	0	0	0	0	0	0	0	0	0	0	0	0	1	0.000	0.000
98.000000	4357.948718	4388.205128	4406.153846	3711.282051	4384.615385	4611.282051	4629.230769	4520.512821	4024.102564	4103.589744	4516.410256	4437.948718	4269.230769	3952.820513	1736.000000	1678.000000	29.171000	0.000000	0.000000	0.000000	0.000000	1	1	0	0	0	0	0	0	0	0	0	0	0	0	0	0	0	0	0	1	0.000	0.000
99.000000	4356.410256	4388.205128	4408.717949	3710.769231	4388.717949	4611.282051	4631.282051	4522.564103	4024.102564	4105.641026	4518.461538	4437.435897	4268.717949	3956.410256	1737.000000	1678.000000	29.173000	0.000000	0.000000	0.000000	0.000000	1	1	0	0	0	0	0	0	0	0	0	0	0	0	0	0	0	0	0	1	0.000	0.000
100.000000	4354.358974	4384.102564	4406.666667	3711.282051	4385.128205	4613.333333	4629.743590	4523.589744	4024.615385	4104.615385	4516.923077	4438.974359	4266.153846	3957.948718	1737.000000	1677.000000	29.182000	0.000000	0.000000	0.000000	0.000000	1	1	0	0	0	0	0	0	0	0	0	0	0	0	0	0	0	0	0	1	0.000	0.000
101.000000	4355.384615	4386.153846	4405.641026	3710.256410	4383.076923	4614.358974	4631.282051	4524.102564	4024.615385	4103.076923	4515.897436	4436.923077	4265.641026	3953.333333	1736.000000	1678.000000	29.190000	0.000000	0.000000	0.000000	0.000000	1	1	0	0	0	0	0	0	0	0	0	0	0	0	0	0	0	0	0	1	0.000	0.000
102.000000	4355.897436	4389.230769	4408.717949	3712.820513	4383.589744	4611.282051	4633.846154	4524.102564	4024.102564	4104.615385	4518.974359	4437.435897	4268.717949	3952.307692	1738.000000	1677.000000	29.203000	0.000000	0.000000	0.000000	0.000000	1	1	0	0	0	0	0	0	0	0	0	0	0	0	0	0	0	0	0	1	0.000	0.000
103.000000	4355.384615	4388.205128	4407.179487	3714.358974	4381.538462	4609.743590	4631.794872	4523.589744	4024.615385	4104.102564	4518.461538	4437.948718	4269.230769	3954.871795	1737.000000	1678.000000	29.203000	0.000000	0.000000	0.000000	0.000000	1	1	0	0	0	0	0	0	0	0	0	0	0	0	0	0	0	0	0	1	0.000	0.000
104.000000	4353.333333	4384.615385	4405.641026	3711.282051	4383.076923	4612.307692	4630.769231	4520.512821	4026.153846	4103.076923	4515.897436	4440.512821	4267.692308	3957.435897	1738.000000	1678.000000	29.212000	0.000000	0.000000	0.000000	0.000000	1	1	0	0	0	0	0	0	0	0	0	0	0	0	0	0	0	0	0	1	0.000	0.000
105.000000	4352.820513	4385.641026	4408.717949	3711.282051	4385.641026	4613.333333	4633.333333	4520.512821	4025.128205	4103.589744	4516.923077	4439.487179	4267.179487	3955.897436	1736.000000	1678.000000	29.220000	0.000000	0.000000	0.000000	0.000000	1	1	0	0	0	0	0	0	0	0	0	0	0	0	0	0	0	0	0	1	0.000	0.000
106.000000	4357.435897	4387.179487	4409.743590	3712.820513	4382.564103	4613.333333	4632.820513	4523.076923	4024.102564	4103.076923	4518.974359	4437.435897	4266.153846	3952.307692	1736.000000	1679.000000	29.233000	0.000000	0.000000	0.000000	0.000000	1	1	0	0	0	0	0	0	0	0	0	0	0	0	0	0	0	0	0	1	0.000	0.000
107.000000	4360.512821	4386.666667	4407.692308	3713.333333	4381.538462	4614.358974	4631.794872	4522.051282	4024.615385	4103.589744	4516.410256	4438.461538	4266.666667	3950.769231	1736.000000	1677.000000	29.236000	0.000000	0.000000	0.000000	0.000000	1	1	0	0	0	0	0	0	0	0	0	0	0	0	0	0	0	0	0	1	0.000	0.000
108.000000	4356.410256	4385.641026	4408.205128	3714.358974	4383.589744	4612.820513	4631.794872	4522.051282	4023.589744	4103.589744	4514.358974	4440.512821	4267.692308	3954.358974	1736.000000	1678.000000	29.243000	0.000000	0.000000	0.000000	0.000000	1	1	0	0	0	0	0	0	0	0	0	0	0	0	0	0	0	0	0	1	0.000	0.000
109.000000	4354.358974	4386.666667	4408.717949	3712.820513	4384.615385	4612.307692	4630.256410	4522.564103	4022.051282	4103.589744	4517.435897	4440.000000	4267.692308	3954.358974	1737.000000	1678.000000	29.251000	0.000000	0.000000	0.000000	0.000000	1	1	0	0	0	0	0	0	0	0	0	0	0	0	0	0	0	0	0	1	0.000	0.000
110.000000	4355.384615	4387.692308	4408.717949	3710.256410	4383.589744	4615.384615	4630.256410	4522.051282	4023.076923	4103.589744	4518.461538	4438.974359	4268.205128	3949.743590	1737.000000	1678.000000	29.263000	0.000000	0.000000	0.000000	0.000000	1	1	0	0	0	0	0	0	0	0	0	0	0	0	0	0	0	0	0	1	0.000	0.000
111.000000	4354.871795	4386.666667	4409.230769	3711.282051	4383.076923	4613.846154	4631.282051	4523.076923	4024.615385	4103.589744	4518.461538	4439.487179	4267.692308	3950.769231	1737.000000	1677.000000	29.267000	0.000000	0.000000	0.000000	0.000000	1	1	0	0	0	0	0	0	0	0	0	0	0	0	0	0	0	0	0	1	0.000	0.000
112.000000	4355.384615	4386.666667	4408.717949	3713.333333	4381.538462	4609.230769	4630.769231	4522.564103	4024.615385	4103.589744	4518.461538	4437.435897	4264.102564	3952.820513	1736.000000	1678.000000	29.275000	0.000000	0.000000	0.000000	0.000000	1	1	0	0	0	0	0	0	0	0	0	0	0	0	0	0	0	0	0	1	0.000	0.000
113.000000	4354.871795	4386.666667	4407.692308	3715.384615	4381.025641	4610.769231	4630.769231	4519.487179	4024.102564	4103.589744	4518.461538	4438.974359	4265.128205	3953.846154	1738.000000	1677.000000	29.282000	0.000000	0.000000	0.000000	0.000000	1	1	0	0	0	0	0	0	0	0	0	0	0	0	0	0	0	0	0	1	0.000	0.000
114.000000	4352.307692	4386.153846	4407.179487	3716.410256	4383.589744	4614.871795	4630.256410	4522.564103	4024.615385	4103.589744	4518.461538	4439.487179	4267.692308	3955.384615	1736.000000	1678.000000	29.297000	0.000000	0.000000	0.000000	0.000000	1	1	0	0	0	0	0	0	0	0	0	0	0	0	0	0	0	0	0	1	0.000	0.000
115.000000	4352.307692	4386.666667	4407.692308	3714.871795	4385.128205	4613.846154	4628.205128	4524.102564	4024.615385	4103.076923	4520.000000	4439.487179	4263.589744	3954.871795	1738.000000	1678.000000	29.298000	0.000000	0.000000	0.000000	0.000000	1	1	0	0	0	0	0	0	0	0	0	0	0	0	0	0	0	0	0	1	0.000	0.000
116.000000	4356.923077	4389.230769	4405.641026	3712.820513	4386.153846	4613.333333	4630.256410	4521.538462	4024.615385	4103.589744	4516.923077	4438.461538	4261.025641	3950.769231	1737.000000	1677.000000	29.307000	0.000000	0.000000	0.000000	0.000000	1	1	0	0	0	0	0	0	0	0	0	0	0	0	0	0	0	0	0	1	0.000	0.000
117.000000	4357.948718	4387.692308	4406.153846	3712.307692	4384.615385	4613.846154	4631.794872	4521.538462	4023.589744	4103.589744	4516.923077	4440.000000	4266.153846	3952.307692	1737.000000	1679.000000	29.315000	0.000000	0.000000	0.000000	0.000000	1	1	0	0	0	0	0	0	0	0	0	0	0	0	0	0	0	0	0	1	0.000	0.000
118.000000	4357.948718	4385.128205	4407.692308	3711.794872	4384.615385	4613.846154	4631.282051	4523.589744	4023.589744	4103.589744	4520.000000	4437.435897	4270.256410	3955.384615	1737.000000	1678.000000	29.328000	0.000000	0.000000	0.000000	0.000000	1	1	0	0	0	0	0	0	0	0	0	0	0	0	0	0	0	0	0	1	0.000	0.000
119.000000	4355.897436	4386.153846	4408.205128	3711.794872	4384.615385	4611.794872	4631.282051	4519.487179	4024.615385	4104.102564	4520.512821	4437.435897	4269.743590	3954.871795	1736.000000	1678.000000	29.330000	0.000000	0.000000	0.000000	0.000000	1	1	0	0	0	0	0	0	0	0	0	0	0	0	0	0	0	0	0	1	0.000	0.000
120.000000	4355.384615	4387.179487	4407.692308	3711.282051	4384.102564	4612.307692	4632.307692	4518.461538	4023.589744	4104.615385	4520.512821	4438.974359	4266.153846	3953.333333	1737.000000	1677.000000	29.338000	0.000000	0.000000	0.000000	0.000000	1	1	0	0	0	0	0	0	0	0	0	0	0	0	0	0	0	0	0	1	0.000	0.000
121.000000	4357.435897	4387.179487	4407.692308	3710.769231	4384.102564	4613.333333	4627.692308	4521.538462	4022.051282	4105.641026	4521.538462	4441.025641	4265.128205	3953.846154	1737.000000	1678.000000	29.346000	0.000000	0.000000	0.000000	0.000000	1	1	0	0	0	0	0	0	0	0	0	0	0	0	0	0	0	0	0	1	0.000	0.000
122.000000	4357.948718	4386.666667	4408.717949	3711.794872	4385.128205	4612.307692	4628.205128	4522.564103	4023.076923	4103.076923	4518.461538	4440.000000	4268.205128	3954.358974	1737.000000	1678.000000	29.360000	0.000000	0.000000	0.000000	0.000000	1	1	0	0	0	0	0	0	0	0	0	0	0	0	0	0	0	0	0	1	0.000	0.000
123.000000	4354.358974	4385.641026	4409.230769	3711.282051	4385.641026	4611.282051	4631.794872	4521.025641	4023.589744	4101.538462	4516.410256	4438.461538	4268.205128	3954.358974	1737.000000	1678.000000	29.362000	0.000000	0.000000	0.000000	0.000000	1	1	0	0	0	0	0	0	0	0	0	0	0	0	0	0	0	0	0	1	0.000	0.000
124.000000	4352.820513	4385.128205	4407.692308	3710.769231	4383.076923	4611.282051	4631.794872	4520.512821	4024.102564	4102.564103	4517.948718	4436.410256	4265.128205	3953.846154	1737.000000	1678.000000	29.370000	0.000000	0.000000	0.000000	0.000000	1	1	0	0	0	0	0	0	0	0	0	0	0	0	0	0	0	0	0	1	0.000	0.000
125.000000	4354.871795	4385.128205	4406.666667	3711.794872	4381.025641	4611.282051	4631.794872	4522.051282	4024.102564	4105.128205	4516.410256	4437.948718	4265.641026	3951.794872	1736.000000	1678.000000	29.376000	0.000000	0.000000	0.000000	0.000000	1	1	0	0	0	0	0	0	0	0	0	0	0	0	0	0	0	0	0	1	0.000	0.000
126.000000	4357.435897	4385.641026	4408.205128	3712.307692	4383.076923	4611.282051	4630.769231	4522.051282	4023.076923	4104.102564	4514.358974	4440.000000	4267.179487	3951.794872	1738.000000	1678.000000	29.391000	0.000000	0.000000	0.000000	0.000000	1	1	0	0	0	0	0	0	0	0	0	0	0	0	0	0	0	0	0	1	0.000	0.000
127.000000	4356.923077	4387.692308	4406.153846	3711.794872	4386.153846	4610.256410	4629.230769	4521.538462	4024.102564	4101.025641	4516.410256	4436.410256	4266.666667	3954.358974	1736.000000	1677.000000	29.392000	0.000000	0.000000	0.000000	0.000000	1	1	0	0	0	0	0	0	0	0	0	0	0	0	0	0	0	0	0	1	0.000	0.000
128.000000	4355.897436	4387.692308	4405.641026	3711.794872	4385.128205	4609.230769	4630.256410	4522.564103	4025.641026	4101.538462	4519.487179	4436.923077	4267.692308	3953.333333	1736.000000	1679.000000	29.400000	0.000000	0.000000	0.000000	0.000000	1	1	0	0	0	0	0	0	0	0	0	0	0	0	0	0	0	0	0	1	0.000	0.000
0.000000	4356.923077	4385.641026	4408.717949	3712.307692	4383.589744	4612.307692	4633.333333	4522.564103	4024.102564	4105.128205	4518.461538	4437.948718	4268.205128	3949.743590	1737.000000	1677.000000	29.408000	0.000000	0.000000	0.000000	0.000000	1	1	0	0	0	0	0	0	0	0	0	0	0	0	0	0	0	0	0	1	0.000	0.000
1.000000	4357.435897	4384.102564	4408.717949	3712.820513	4382.564103	4616.410256	4631.794872	4521.538462	4022.564103	4104.102564	4516.923077	4438.461538	4267.692308	3951.794872	1737.000000	1678.000000	29.420000	0.000000	0.000000	0.000000	0.000000	1	1	0	0	0	0	0	0	0	0	0	0	0	0	0	0	0	0	0	1	0.000	0.000
2.000000	4357.435897	4385.641026	4406.666667	3712.820513	4384.102564	4615.384615	4630.769231	4522.564103	4024.615385	4098.974359	4517.948718	4437.948718	4267.692308	3954.871795	1737.000000	1678.000000	29.423000	0.000000	0.000000	0.000000	0.000000	1	1	0	0	0	0	0	0	0	0	0	0	0	0	0	0	0	0	0	1	0.000	0.000
3.000000	4356.923077	4386.153846	4407.692308	3711.794872	4385.128205	4612.820513	4632.307692	4522.051282	4025.128205	4100.512821	4518.461538	4440.000000	4266.666667	3954.871795	1737.000000	1677.000000	29.431000	0.000000	0.000000	0.000000	0.000000	1	1	0	0	0	0	0	0	0	0	0	0	0	0	0	0	0	0	0	1	0.000	0.000
4.000000	4357.948718	4385.641026	4408.205128	3713.846154	4385.128205	4613.333333	4633.333333	4521.025641	4025.641026	4105.641026	4514.358974	4436.410256	4263.076923	3951.794872	1738.000000	1678.000000	29.439000	0.000000	0.000000	0.000000	0.000000	1	1	0	0	0	0	0	0	0	0	0	0	0	0	0	0	0	0	0	1	0.000	0.000
5.000000	4357.435897	4384.102564	4408.717949	3714.358974	4382.051282	4611.794872	4632.307692	4521.538462	4024.615385	4104.102564	4515.384615	4436.923077	4264.102564	3951.282051	1737.000000	1678.000000	29.453000	0.000000	0.000000	0.000000	0.000000	1	1	0	0	0	0	0	0	0	0	0	0	0	0	0	0	0	0	0	1	0.000	0.000
6.000000	4356.923077	4386.666667	4408.205128	3711.794872	4383.076923	4610.769231	4631.794872	4522.564103	4022.564103	4101.538462	4517.435897	4436.923077	4267.179487	3952.820513	1738.000000	1679.000000	29.454000	0.000000	0.000000	0.000000	0.000000	1	1	0	0	0	0	0	0	0	0	0	0	0	0	0	0	0	0	0	1	0.000	0.000
7.000000	4356.410256	4388.205128	4407.692308	3713.846154	4385.128205	4612.307692	4630.256410	4521.538462	4022.564103	4104.102564	4517.435897	4438.461538	4268.205128	3953.333333	1737.000000	1678.000000	29.463000	0.000000	0.000000	0.000000	0.000000	1	1	0	0	0	0	0	0	0	0	0	0	0	0	0	0	0	0	0	1	0.000	0.000
8.000000	4356.923077	4386.666667	4407.179487	3715.384615	4383.076923	4613.333333	4631.794872	4523.076923	4023.589744	4104.615385	4516.410256	4438.974359	4266.153846	3951.794872	1738.000000	1678.000000	29.471000	0.000000	0.000000	0.000000	0.000000	1	1	0	0	0	0	0	0	0	0	0	0	0	0	0	0	0	0	0	1	0.000	0.000
9.000000	4357.435897	4385.641026	4407.692308	3710.769231	4382.564103	4609.743590	4631.794872	4522.564103	4023.076923	4101.025641	4516.923077	4440.512821	4265.641026	3953.333333	1737.000000	1678.000000	29.485000	0.000000	0.000000	0.000000	0.000000	1	1	0	0	0	0	0	0	0	0	0	0	0	0	0	0	0	0	0	1	0.000	0.000
10.000000	4357.435897	4387.179487	4407.692308	3709.743590	4385.641026	4609.743590	4632.307692	4521.538462	4023.076923	4102.051282	4517.435897	4438.974359	4266.666667	3952.820513	1738.000000	1678.000000	29.486000	0.000000	0.000000	0.000000	0.000000	1	1	0	0	0	0	0	0	0	0	0	0	0	0	0	0	0	0	0	1	0.000	0.000
11.000000	4356.923077	4386.666667	4407.692308	3713.333333	4384.615385	4614.871795	4632.820513	4522.051282	4024.102564	4105.641026	4518.461538	4437.948718	4268.205128	3949.743590	1737.000000	1678.000000	29.494000	0.000000	0.000000	0.000000	0.000000	1	1	0	0	0	0	0	0	0	0	0	0	0	0	0	0	0	0	0	1	0.000	0.000
12.000000	4356.410256	4386.666667	4406.666667	3712.820513	4383.589744	4615.897436	4631.282051	4521.538462	4025.128205	4105.641026	4517.435897	4436.923077	4267.692308	3949.743590	1737.000000	1677.000000	29.502000	0.000000	0.000000	0.000000	0.000000	1	1	0	0	0	0	0	0	0	0	0	0	0	0	0	0	0	0	0	1	0.000	0.000
13.000000	4354.358974	4386.666667	4407.692308	3711.794872	4385.128205	4612.820513	4629.230769	4520.512821	4025.641026	4100.000000	4517.435897	4437.948718	4266.153846	3951.282051	1737.000000	1679.000000	29.516000	0.000000	0.000000	0.000000	0.000000	1	1	0	0	0	0	0	0	0	0	0	0	0	0	0	0	0	0	0	1	0.000	0.000
14.000000	4352.820513	4384.615385	4409.230769	3714.358974	4385.128205	4611.794872	4631.282051	4520.000000	4023.589744	4097.948718	4519.487179	4438.461538	4268.205128	3950.769231	1738.000000	1678.000000	29.518000	0.000000	0.000000	0.000000	0.000000	1	1	0	0	0	0	0	0	0	0	0	0	0	0	0	0	0	0	0	1	0.000	0.000
15.000000	4355.897436	4385.128205	4407.692308	3715.384615	4383.076923	4611.282051	4633.333333	4521.025641	4023.076923	4098.461538	4518.461538	4435.897436	4269.743590	3952.820513	1736.000000	1678.000000	29.526000	0.000000	0.000000	0.000000	0.000000	1	1	0	0	0	0	0	0	0	0	0	0	0	0	0	0	0	0	0	1	0.000	0.000
16.000000	4358.461538	4387.692308	4408.717949	3713.846154	4384.102564	4610.769231	4630.256410	4520.512821	4024.102564	4097.948718	4518.461538	4440.000000	4268.717949	3954.871795	1738.000000	1679.000000	29.534000	0.000000	0.000000	0.000000	0.000000	1	1	0	0	0	0	0	0	0	0	0	0	0	0	0	0	0	0	0	1	0.000	0.000
17.000000	4356.923077	4385.641026	4408.717949	3714.358974	4386.666667	4614.358974	4628.205128	4521.538462	4023.076923	4097.948718	4517.948718	4441.538462	4267.179487	3952.307692	1736.000000	1677.000000	29.548000	0.000000	0.000000	0.000000	0.000000	1	1	0	0	0	0	0	0	0	0	0	0	0	0	0	0	0	0	0	1	0.000	0.000
18.000000	4356.923077	4384.615385	4407.179487	3714.358974	4386.153846	4613.846154	4630.769231	4522.564103	4023.076923	4098.974359	4516.923077	4436.923077	4266.666667	3952.307692	1737.000000	1679.000000	29.548000	0.000000	0.000000	0.000000	0.000000	1	1	0	0	0	0	0	0	0	0	0	0	0	0	0	0	0	0	0	1	0.000	0.000
19.000000	4357.948718	4387.692308	4405.128205	3714.358974	4384.615385	4610.256410	4633.846154	4523.589744	4024.615385	4099.487179	4515.897436	4434.358974	4266.153846	3954.871795	1738.000000	1677.000000	29.557000	0.000000	0.000000	0.000000	0.000000	1	1	0	0	0	0	0	0	0	0	0	0	0	0	0	0	0	0	0	1	0.000	0.000
20.000000	4356.923077	4387.179487	4407.692308	3713.846154	4385.128205	4610.769231	4632.307692	4522.051282	4023.589744	4102.564103	4517.948718	4440.512821	4265.641026	3954.871795	1736.000000	1679.000000	29.565000	0.000000	0.000000	0.000000	0.000000	1	1	0	0	0	0	0	0	0	0	0	0	0	0	0	0	0	0	0	1	0.000	0.000
21.000000	4357.435897	4385.128205	4408.717949	3712.820513	4390.256410	4614.871795	4630.769231	4522.564103	4022.564103	4106.666667	4518.461538	4438.461538	4266.666667	3952.820513	1737.000000	1678.000000	29.577000	0.000000	0.000000	0.000000	0.000000	1	1	0	0	0	0	0	0	0	0	0	0	0	0	0	0	0	0	0	1	0.000	0.000
22.000000	4356.410256	4386.666667	4407.179487	3713.333333	4392.307692	4613.846154	4631.794872	4522.564103	4024.615385	4104.615385	4517.948718	4435.897436	4266.666667	3954.358974	1737.000000	1678.000000	29.580000	0.000000	0.000000	0.000000	0.000000	1	1	0	0	0	0	0	0	0	0	0	0	0	0	0	0	0	0	0	1	0.000	0.000
23.000000	4355.897436	4387.179487	4406.666667	3714.358974	4388.717949	4612.307692	4631.282051	4522.564103	4027.692308	4102.051282	4517.435897	4437.948718	4266.666667	3954.358974	1737.000000	1678.000000	29.588000	0.000000	0.000000	0.000000	0.000000	1	1	0	0	0	0	0	0	0	0	0	0	0	0	0	0	0	0	0	1	0.000	0.000
24.000000	4356.923077	4385.641026	4407.692308	3712.820513	4384.615385	4611.282051	4629.743590	4523.076923	4025.641026	4103.076923	4518.461538	4441.025641	4267.692308	3953.333333	1736.000000	1678.000000	29.596000	0.000000	0.000000	0.000000	0.000000	1	1	0	0	0	0	0	0	0	0	0	0	0	0	0	0	0	0	0	1	0.000	0.000
25.000000	4357.435897	4387.179487	4405.641026	3712.307692	4384.102564	4610.769231	4630.256410	4523.076923	4021.538462	4103.076923	4521.025641	4441.538462	4268.205128	3952.820513	1738.000000	1678.000000	29.610000	0.000000	0.000000	0.000000	0.000000	1	1	0	0	0	0	0	0	0	0	0	0	0	0	0	0	0	0	0	1	0.000	0.000
26.000000	4356.410256	4387.692308	4406.153846	3714.358974	4384.615385	4611.282051	4629.743590	4522.051282	4022.051282	4101.538462	4521.538462	4440.512821	4266.666667	3952.307692	1736.000000	1678.000000	29.611000	0.000000	0.000000	0.000000	0.000000	1	1	0	0	0	0	0	0	0	0	0	0	0	0	0	0	0	0	0	1	0.000	0.000
27.000000	4357.435897	4385.641026	4409.743590	3714.358974	4385.128205	4611.282051	4629.743590	4522.051282	4023.589744	4102.564103	4520.000000	4440.000000	4266.153846	3950.769231	1737.000000	1679.000000	29.620000	0.000000	0.000000	0.000000	0.000000	1	1	0	0	0	0	0	0	0	0	0	0	0	0	0	0	0	0	0	1	0.000	0.000
28.000000	4356.923077	4384.615385	4409.743590	3713.333333	4385.641026	4610.256410	4631.794872	4521.538462	4023.076923	4105.128205	4517.948718	4441.538462	4267.692308	3952.820513	1736.000000	1678.000000	29.628000	0.000000	0.000000	0.000000	0.000000	1	1	0	0	0	0	0	0	0	0	0	0	0	0	0	0	0	0	0	1	0.000	0.000
29.000000	4354.871795	4387.692308	4408.205128	3713.333333	4384.615385	4610.769231	4632.307692	4520.000000	4023.076923	4104.102564	4517.948718	4440.000000	4267.692308	3956.923077	1736.000000	1679.000000	29.639000	0.000000	0.000000	0.000000	0.000000	1	1	0	0	0	0	0	0	0	0	0	0	0	0	0	0	0	0	0	1	0.000	0.000
30.000000	4355.897436	4389.743590	4408.717949	3713.846154	4383.589744	4610.256410	4630.769231	4523.076923	4023.589744	4101.538462	4518.974359	4437.435897	4266.666667	3954.358974	1737.000000	1677.000000	29.642000	0.000000	0.000000	0.000000	0.000000	1	1	0	0	0	0	0	0	0	0	0	0	0	0	0	0	0	0	0	1	0.000	0.000
31.000000	4358.461538	4388.205128	4407.692308	3714.358974	4384.102564	4608.205128	4629.743590	4523.076923	4023.076923	4103.076923	4520.000000	4442.051282	4266.153846	3952.820513	1736.000000	1678.000000	29.650000	0.000000	0.000000	0.000000	0.000000	1	1	0	0	0	0	0	0	0	0	0	0	0	0	0	0	0	0	0	1	0.000	0.000
32.000000	4355.897436	4387.179487	4406.666667	3714.358974	4386.153846	4611.794872	4629.743590	4519.487179	4023.076923	4104.102564	4517.948718	4442.051282	4267.692308	3956.410256	1738.000000	1678.000000	29.658000	0.000000	0.000000	0.000000	0.000000	1	1	0	0	0	0	0	0	0	0	0	0	0	0	0	0	0	0	0	1	0.000	0.000
33.000000	4353.333333	4386.153846	4408.205128	3713.333333	4385.641026	4615.384615	4630.256410	4520.000000	4022.564103	4101.538462	4517.948718	4438.974359	4270.256410	3954.871795	1737.000000	1677.000000	29.672000	0.000000	0.000000	0.000000	0.000000	1	1	0	0	0	0	0	0	0	0	0	0	0	0	0	0	0	0	0	1	0.000	0.000
34.000000	4354.358974	4386.153846	4407.179487	3710.769231	4382.051282	4613.333333	4631.282051	4524.102564	4022.564103	4100.000000	4518.461538	4438.974359	4269.230769	3949.230769	1737.000000	1678.000000	29.672000	0.000000	0.000000	0.000000	0.000000	1	1	0	0	0	0	0	0	0	0	0	0	0	0	0	0	0	0	0	1	0.000	0.000
35.000000	4352.820513	4387.179487	4407.692308	3711.282051	4380.000000	4610.769231	4629.743590	4522.051282	4022.564103	4102.051282	4517.948718	4442.564103	4267.692308	3953.846154	1737.000000	1678.000000	29.681000	0.000000	0.000000	0.000000	0.000000	1	1	0	0	0	0	0	0	0	0	0	0	0	0	0	0	0	0	0	1	0.000	0.000
36.000000	4354.358974	4389.743590	4408.717949	3711.794872	4383.589744	4614.871795	4627.692308	4521.538462	4021.538462	4104.615385	4518.461538	4437.948718	4268.717949	3956.923077	1737.000000	1678.000000	29.690000	0.000000	0.000000	0.000000	0.000000	1	1	0	0	0	0	0	0	0	0	0	0	0	0	0	0	0	0	0	1	0.000	0.000
37.000000	4358.974359	4387.179487	4407.692308	3711.282051	4385.128205	4613.333333	4629.743590	4523.589744	4022.051282	4105.128205	4519.487179	4438.974359	4270.256410	3953.333333	1736.000000	1678.000000	29.703000	0.000000	0.000000	0.000000	0.000000	1	1	0	0	0	0	0	0	0	0	0	0	0	0	0	0	0	0	0	1	0.000	0.000
38.000000	4359.487179	4384.615385	4406.153846	3711.794872	4384.615385	4610.769231	4633.333333	4523.076923	4022.564103	4103.076923	4518.974359	4441.538462	4267.179487	3954.871795	1737.000000	1678.000000	29.705000	0.000000	0.000000	0.000000	0.000000	1	1	0	0	0	0	0	0	0	0	0	0	0	0	0	0	0	0	0	1	0.000	0.000
39.000000	4356.923077	4386.153846	4408.205128	3713.846154	4383.589744	4610.769231	4629.230769	4521.025641	4022.051282	4103.076923	4520.512821	4442.564103	4267.179487	3957.435897	1737.000000	1677.000000	29.713000	0.000000	0.000000	0.000000	0.000000	1	1	0	0	0	0	0	0	0	0	0	0	0	0	0	0	0	0	0	1	0.000	0.000
40.000000	4356.923077	4387.692308	4409.230769	3713.333333	4381.538462	4610.769231	4627.692308	4520.512821	4022.051282	4103.589744	4519.487179	4440.000000	4269.230769	3954.871795	1737.000000	1679.000000	29.720000	0.000000	0.000000	0.000000	0.000000	1	1	0	0	0	0	0	0	0	0	0	0	0	0	0	0	0	0	0	1	0.000	0.000
41.000000	4357.435897	4386.666667	4407.692308	3711.794872	4381.538462	4611.282051	4630.769231	4519.487179	4022.564103	4103.076923	4516.923077	4440.000000	4268.205128	3954.358974	1738.000000	1678.000000	29.732000	0.000000	0.000000	0.000000	0.000000	1	1	0	0	0	0	0	0	0	0	0	0	0	0	0	0	0	0	0	1	0.000	0.000
42.000000	4356.923077	4385.128205	4407.692308	3712.820513	4382.051282	4612.820513	4630.256410	4521.025641	4023.589744	4104.102564	4520.000000	4440.000000	4267.692308	3953.846154	1736.000000	1679.000000	29.736000	0.000000	0.000000	0.000000	0.000000	1	1	0	0	0	0	0	0	0	0	0	0	0	0	0	0	0	0	0	1	0.000	0.000
43.000000	4355.897436	4384.615385	4409.230769	3712.820513	4381.538462	4611.794872	4627.692308	4523.589744	4025.128205	4105.641026	4522.564103	4440.000000	4269.230769	3952.820513	1737.000000	1678.000000	29.744000	0.000000	0.000000	0.000000	0.000000	1	1	0	0	0	0	0	0	0	0	0	0	0	0	0	0	0	0	0	1	0.000	0.000
44.000000	4355.897436	4387.179487	4408.717949	3712.820513	4382.564103	4611.282051	4629.743590	4523.076923	4024.615385	4103.076923	4518.461538	4440.512821	4269.743590	3952.307692	1736.000000	1677.000000	29.752000	0.000000	0.000000	0.000000	0.000000	1	1	0	0	0	0	0	0	0	0	0	0	0	0	0	0	0	0	0	1	0.000	0.000
45.000000	4357.948718	4389.743590	4406.153846	3714.358974	4385.641026	4613.333333	4632.307692	4521.538462	4022.564103	4101.538462	4514.358974	4441.538462	4269.230769	3951.794872	1737.000000	1679.000000	29.765000	0.000000	0.000000	0.000000	0.000000	1	1	0	0	0	0	0	0	0	0	0	0	0	0	0	0	0	0	0	1	0.000	0.000
46.000000	4357.948718	4389.743590	4406.153846	3713.846154	4385.128205	4611.794872	4631.282051	4522.051282	4023.076923	4102.564103	4515.897436	4440.512821	4268.717949	3951.794872	1736.000000	1677.000000	29.767000	0.000000	0.000000	0.000000	0.000000	1	1	0	0	0	0	0	0	0	0	0	0	0	0	0	0	0	0	0	1	0.000	0.000
47.000000	4356.410256	4390.256410	4407.179487	3712.820513	4383.589744	4610.769231	4630.769231	4525.641026	4022.564103	4099.487179	4518.461538	4435.384615	4267.179487	3953.333333	1737.000000	1679.000000	29.775000	0.000000	0.000000	0.000000	0.000000	1	1	0	0	0	0	0	0	0	0	0	0	0	0	0	0	0	0	0	1	0.000	0.000
48.000000	4357.948718	4389.743590	4406.153846	3713.846154	4384.615385	4613.333333	4631.794872	4526.153846	4023.076923	4100.512821	4517.435897	4434.358974	4266.153846	3953.333333	1736.000000	1678.000000	29.783000	0.000000	0.000000	0.000000	0.000000	1	1	0	0	0	0	0	0	0	0	0	0	0	0	0	0	0	0	0	1	0.000	0.000
49.000000	4360.512821	4387.179487	4405.128205	3713.846154	4387.692308	4614.871795	4632.820513	4524.102564	4025.128205	4104.615385	4514.871795	4436.410256	4267.692308	3950.769231	1736.000000	1678.000000	29.798000	0.000000	0.000000	0.000000	0.000000	1	1	0	0	0	0	0	0	0	0	0	0	0	0	0	0	0	0	0	1	0.000	0.000
50.000000	4359.487179	4387.692308	4406.666667	3710.769231	4388.717949	4615.384615	4632.307692	4523.076923	4024.102564	4104.615385	4517.435897	4438.461538	4268.205128	3951.794872	1736.000000	1677.000000	29.799000	0.000000	0.000000	0.000000	0.000000	1	1	0	0	0	0	0	0	0	0	0	0	0	0	0	0	0	0	0	1	0.000	0.000
51.000000	4357.435897	4390.256410	4406.153846	3711.282051	4386.666667	4616.410256	4634.871795	4526.153846	4024.102564	4104.102564	4517.948718	4434.358974	4267.692308	3952.307692	1735.000000	1679.000000	29.806000	0.000000	0.000000	0.000000	0.000000	1	1	0	0	0	0	0	0	0	0	0	0	0	0	0	0	0	0	0	1	0.000	0.000
52.000000	4356.410256	4386.666667	4406.153846	3713.333333	4385.128205	4614.871795	4636.410256	4527.692308	4026.153846	4104.615385	4516.923077	4434.358974	4266.666667	3952.307692	1738.000000	1677.000000	29.814000	0.000000	0.000000	0.000000	0.000000	1	1	0	0	0	0	0	0	0	0	0	0	0	0	0	0	0	0	0	1	0.000	0.000
53.000000	4357.435897	4384.615385	4406.666667	3709.743590	4385.641026	4613.846154	4632.820513	4525.641026	4024.615385	4103.076923	4517.948718	4434.358974	4267.179487	3951.794872	1736.000000	1678.000000	29.827000	0.000000	0.000000	0.000000	0.000000	1	1	0	0	0	0	0	0	0	0	0	0	0	0	0	0	0	0	0	1	0.000	0.000
54.000000	4359.487179	4386.666667	4406.153846	3707.692308	4383.076923	4613.846154	4630.769231	4523.076923	4022.051282	4103.076923	4520.512821	4436.410256	4267.692308	3952.307692	1737.000000	1678.000000	29.830000	0.000000	0.000000	0.000000	0.000000	1	1	0	0	0	0	0	0	0	0	0	0	0	0	0	0	0	0	0	1	0.000	0.000
55.000000	4358.461538	4390.769231	4404.102564	3713.333333	4383.589744	4612.820513	4632.307692	4524.615385	4022.564103	4103.076923	4516.410256	4435.897436	4265.128205	3951.282051	1736.000000	1678.000000	29.838000	0.000000	0.000000	0.000000	0.000000	1	1	0	0	0	0	0	0	0	0	0	0	0	0	0	0	0	0	0	1	0.000	0.000
56.000000	4355.384615	4390.256410	4405.641026	3715.897436	4383.589744	4612.307692	4631.282051	4526.153846	4023.589744	4102.051282	4514.871795	4434.358974	4264.102564	3950.256410	1736.000000	1678.000000	29.846000	0.000000	0.000000	0.000000	0.000000	1	1	0	0	0	0	0	0	0	0	0	0	0	0	0	0	0	0	0	1	0.000	0.000
57.000000	4354.871795	4387.692308	4408.205128	3712.820513	4381.025641	4615.384615	4632.307692	4526.153846	4024.615385	4105.128205	4516.410256	4433.333333	4267.179487	3951.794872	1736.000000	1678.000000	29.860000	0.000000	0.000000	0.000000	0.000000	1	1	0	0	0	0	0	0	0	0	0	0	0	0	0	0	0	0	0	1	0.000	0.000
58.000000	4354.871795	4385.641026	4409.230769	3713.333333	4381.025641	4615.384615	4633.846154	4524.615385	4026.153846	4105.641026	4516.923077	4437.435897	4268.717949	3952.820513	1736.000000	1678.000000	29.861000	0.000000	0.000000	0.000000	0.000000	1	1	0	0	0	0	0	0	0	0	0	0	0	0	0	0	0	0	0	1	0.000	0.000
59.000000	4353.846154	4385.128205	4407.179487	3715.897436	4384.102564	4611.794872	4631.282051	4524.102564	4025.641026	4102.564103	4514.871795	4440.512821	4267.692308	3950.769231	1737.000000	1678.000000	29.870000	0.000000	0.000000	0.000000	0.000000	1	1	0	0	0	0	0	0	0	0	0	0	0	0	0	0	0	0	0	1	0.000	0.000
60.000000	4356.923077	4386.153846	4405.128205	3713.333333	4386.666667	4611.794872	4630.769231	4523.589744	4025.128205	4104.102564	4514.871795	4438.461538	4267.179487	3951.282051	1738.000000	1678.000000	29.878000	0.000000	0.000000	0.000000	0.000000	1	1	0	0	0	0	0	0	0	0	0	0	0	0	0	0	0	0	0	1	0.000	0.000
61.000000	4360.000000	4384.102564	4407.692308	3710.256410	4387.179487	4614.358974	4634.358974	4522.564103	4024.615385	4104.615385	4517.948718	4436.410256	4268.205128	3952.307692	1737.000000	1678.000000	29.892000	0.000000	0.000000	0.000000	0.000000	1	1	0	0	0	0	0	0	0	0	0	0	0	0	0	0	0	0	0	1	0.000	0.000
62.000000	4354.358974	4384.102564	4409.743590	3711.282051	4384.615385	4613.333333	4634.871795	4523.076923	4022.564103	4101.538462	4518.461538	4438.461538	4267.692308	3949.230769	1737.000000	1678.000000	29.893000	0.000000	0.000000	0.000000	0.000000	1	1	0	0	0	0	0	0	0	0	0	0	0	0	0	0	0	0	0	1	0.000	0.000
63.000000	4351.282051	4386.666667	4407.179487	3711.794872	4381.538462	4611.282051	4630.769231	4523.076923	4023.076923	4102.564103	4515.897436	4440.000000	4265.641026	3949.230769	1737.000000	1678.000000	29.901000	0.000000	0.000000	0.000000	0.000000	1	1	0	0	0	0	0	0	0	0	0	0	0	0	0	0	0	0	0	1	0.000	0.000
64.000000	4354.871795	4387.179487	4405.128205	3711.282051	4384.102564	4612.307692	4629.743590	4523.076923	4024.102564	4105.641026	4515.897436	4438.974359	4265.128205	3952.820513	1737.000000	1678.000000	29.909000	0.000000	0.000000	0.000000	0.000000	1	1	0	0	0	0	0	0	0	0	0	0	0	0	0	0	0	0	0	1	0.000	0.000
65.000000	4356.410256	4387.692308	4408.205128	3711.282051	4386.666667	4612.307692	4631.282051	4522.564103	4023.589744	4103.076923	4518.461538	4442.051282	4268.205128	3955.897436	1737.000000	1678.000000	29.921000	0.000000	0.000000	0.000000	0.000000	1	1	0	0	0	0	0	0	0	0	0	0	0	0	0	0	0	0	0	1	0.000	0.000
66.000000	4353.333333	4391.282051	4408.205128	3713.333333	4386.666667	4611.794872	4631.794872	4523.076923	4023.589744	4100.000000	4516.410256	4438.974359	4268.717949	3954.871795	1737.000000	1678.000000	29.924000	0.000000	0.000000	0.000000	0.000000	1	1	0	0	0	0	0	0	0	0	0	0	0	0	0	0	0	0	0	1	0.000	0.000
67.000000	4353.846154	4388.717949	4408.717949	3714.871795	4385.641026	4611.794872	4631.794872	4523.589744	4026.153846	4101.538462	4514.871795	4435.384615	4266.153846	3953.846154	1736.000000	1677.000000	29.931000	0.000000	0.000000	0.000000	0.000000	1	1	0	0	0	0	0	0	0	0	0	0	0	0	0	0	0	0	0	1	0.000	0.000
68.000000	4355.897436	4384.615385	4409.743590	3715.384615	4383.589744	4614.358974	4632.820513	4523.076923	4025.641026	4102.051282	4516.923077	4433.846154	4267.179487	3952.307692	1737.000000	1678.000000	29.939000	0.000000	0.000000	0.000000	0.000000	1	1	0	0	0	0	0	0	0	0	0	0	0	0	0	0	0	0	0	1	0.000	0.000
69.000000	4353.846154	4384.615385	4407.692308	3715.384615	4381.025641	4614.358974	4631.282051	4521.025641	4023.076923	4100.512821	4516.923077	4437.948718	4269.230769	3953.333333	1737.000000	1677.000000	29.953000	0.000000	0.000000	0.000000	0.000000	1	1	0	0	0	0	0	0	0	0	0	0	0	0	0	0	0	0	0	1	0.000	0.000
70.000000	4354.358974	4387.692308	4404.615385	3713.333333	4382.564103	4612.307692	4628.717949	4522.051282	4024.615385	4101.025641	4515.384615	4437.435897	4266.666667	3952.307692	1737.000000	1679.000000	29.955000	0.000000	0.000000	0.000000	0.000000	1	1	0	0	0	0	0	0	0	0	0	0	0	0	0	0	0	0	0	1	0.000	0.000
71.000000	4355.384615	4386.153846	4406.666667	3709.743590	4384.102564	4609.230769	4630.256410	4524.615385	4025.128205	4104.102564	4517.435897	4437.435897	4265.128205	3950.256410	1738.000000	1677.000000	29.963000	0.000000	0.000000	0.000000	0.000000	1	1	0	0	0	0	0	0	0	0	0	0	0	0	0	0	0	0	0	1	0.000	0.000
72.000000	4355.384615	4384.615385	4407.692308	3709.230769	4384.102564	4609.230769	4632.307692	4524.102564	4023.076923	4103.076923	4518.974359	4436.923077	4265.641026	3953.333333	1737.000000	1678.000000	29.972000	0.000000	0.000000	0.000000	0.000000	1	1	0	0	0	0	0	0	0	0	0	0	0	0	0	0	0	0	0	1	0.000	0.000
73.000000	4352.307692	4385.641026	4407.179487	3709.743590	4383.589744	4610.769231	4630.256410	4520.000000	4022.051282	4102.051282	4517.948718	4438.974359	4266.153846	3956.410256	1738.000000	1678.000000	29.984000	0.000000	0.000000	0.000000	0.000000	1	1	0	0	0	0	0	0	0	0	0	0	0	0	0	0	0	0	0	1	0.000	0.000
74.000000	4352.820513	4387.692308	4409.230769	3710.769231	4384.102564	4611.794872	4630.769231	4518.461538	4024.102564	4104.102564	4517.435897	4439.487179	4265.641026	3951.282051	1736.000000	1677.000000	29.987000	0.000000	0.000000	0.000000	0.000000	1	1	0	0	0	0	0	0	0	0	0	0	0	0	0	0	0	0	0	1	0.000	0.000
75.000000	4355.897436	4387.179487	4409.230769	3712.307692	4383.589744	4611.282051	4633.333333	4522.051282	4024.615385	4104.102564	4518.461538	4441.025641	4267.179487	3948.205128	1737.000000	1678.000000	29.995000	0.000000	0.000000	0.000000	0.000000	1	1	0	0	0	0	0	0	0	0	0	0	0	0	0	0	0	0	0	1	0.000	0.000
76.000000	4355.897436	4385.641026	4407.692308	3711.794872	4385.128205	4611.794872	4632.820513	4525.128205	4024.615385	4100.000000	4517.948718	4438.974359	4268.205128	3952.307692	1737.000000	1677.000000	30.003000	0.000000	0.000000	0.000000	0.000000	1	1	0	0	0	0	0	0	0	0	0	0	0	0	0	0	0	0	0	1	0.000	0.000
77.000000	4354.358974	4386.666667	4409.230769	3710.769231	4386.153846	4611.282051	4630.256410	4521.025641	4024.615385	4100.000000	4517.435897	4437.435897	4267.692308	3955.897436	1736.000000	1678.000000	30.017000	0.000000	0.000000	0.000000	0.000000	1	1	0	0	0	0	0	0	0	0	0	0	0	0	0	0	0	0	0	1	0.000	0.000
78.000000	4354.871795	4387.692308	4411.794872	3712.820513	4383.076923	4610.256410	4630.256410	4517.948718	4024.615385	4102.051282	4517.948718	4438.974359	4267.179487	3953.846154	1737.000000	1678.000000	30.018000	0.000000	0.000000	0.000000	0.000000	1	1	0	0	0	0	0	0	0	0	0	0	0	0	0	0	0	0	0	1	0.000	0.000
79.000000	4355.897436	4385.641026	4408.717949	3711.794872	4384.102564	4611.794872	4631.794872	4520.512821	4026.666667	4102.051282	4516.410256	4437.948718	4267.692308	3950.769231	1738.000000	1678.000000	30.026000	0.000000	0.000000	0.000000	0.000000	1	1	0	0	0	0	0	0	0	0	0	0	0	0	0	0	0	0	0	1	0.000	0.000
80.000000	4354.358974	4384.615385	4408.205128	3709.743590	4385.128205	4614.358974	4631.282051	4520.512821	4026.666667	4102.051282	4517.435897	4436.410256	4268.205128	3950.769231	1738.000000	1677.000000	30.034000	0.000000	0.000000	0.000000	0.000000	1	1	0	0	0	0	0	0	0	0	0	0	0	0	0	0	0	0	0	1	0.000	0.000
81.000000	4353.846154	4385.128205	4410.256410	3712.307692	4383.076923	4614.358974	4630.256410	4520.512821	4022.051282	4100.512821	4517.948718	4435.384615	4268.717949	3952.820513	1737.000000	1679.000000	30.048000	0.000000	0.000000	0.000000	0.000000	1	1	0	0	0	0	0	0	0	0	0	0	0	0	0	0	0	0	0	1	0.000	0.000
82.000000	4357.435897	4386.153846	4407.179487	3716.410256	4383.589744	4610.769231	4631.794872	4522.564103	4021.025641	4097.435897	4517.435897	4436.923077	4267.692308	3952.820513	1738.000000	1678.000000	30.050000	0.000000	0.000000	0.000000	0.000000	1	1	0	0	0	0	0	0	0	0	0	0	0	0	0	0	0	0	0	1	0.000	0.000
83.000000	4357.435897	4384.615385	4402.051282	3713.333333	4388.205128	4610.256410	4632.820513	4522.564103	4025.641026	4097.948718	4517.948718	4435.897436	4264.615385	3951.282051	1736.000000	1678.000000	30.058000	0.000000	0.000000	0.000000	0.000000	1	1	0	0	0	0	0	0	0	0	0	0	0	0	0	0	0	0	0	1	0.000	0.000
84.000000	4351.794872	4384.615385	4405.128205	3708.205128	4386.153846	4613.846154	4628.717949	4521.025641	4025.641026	4103.076923	4518.974359	4438.461538	4265.128205	3952.820513	1738.000000	1679.000000	30.064000	0.000000	0.000000	0.000000	0.000000	1	1	0	0	0	0	0	0	0	0	0	0	0	0	0	0	0	0	0	1	0.000	0.000
85.000000	4352.307692	4388.717949	4409.230769	3711.794872	4383.076923	4615.384615	4629.230769	4523.589744	4022.051282	4104.615385	4516.923077	4435.897436	4265.128205	3952.820513	1737.000000	1677.000000	30.078000	0.000000	0.000000	0.000000	0.000000	1	1	0	0	0	0	0	0	0	0	0	0	0	0	0	0	0	0	0	1	0.000	0.000
86.000000	4357.435897	4389.743590	4408.205128	3715.384615	4383.076923	4611.282051	4632.820513	4524.102564	4022.051282	4101.538462	4516.923077	4436.923077	4263.589744	3950.769231	1737.000000	1679.000000	30.082000	0.000000	0.000000	0.000000	0.000000	1	1	0	0	0	0	0	0	0	0	0	0	0	0	0	0	0	0	0	1	0.000	0.000
87.000000	4356.923077	4385.128205	4406.666667	3714.358974	4385.128205	4610.769231	4634.358974	4523.589744	4023.589744	4101.538462	4518.974359	4439.487179	4265.641026	3950.256410	1738.000000	1677.000000	30.088000	0.000000	0.000000	0.000000	0.000000	1	1	0	0	0	0	0	0	0	0	0	0	0	0	0	0	0	0	0	1	0.000	0.000
88.000000	4354.358974	4383.076923	4407.692308	3713.846154	4384.615385	4612.307692	4631.794872	4524.102564	4023.589744	4105.641026	4518.461538	4440.000000	4267.179487	3952.307692	1737.000000	1678.000000	30.096000	0.000000	0.000000	0.000000	0.000000	1	1	0	0	0	0	0	0	0	0	0	0	0	0	0	0	0	0	0	1	0.000	0.000
89.000000	4357.435897	4385.641026	4406.666667	3712.307692	4382.051282	4612.307692	4630.769231	4524.102564	4022.051282	4105.128205	4515.384615	4436.923077	4267.179487	3953.333333	1738.000000	1678.000000	30.110000	0.000000	0.000000	0.000000	0.000000	1	1	0	0	0	0	0	0	0	0	0	0	0	0	0	0	0	0	0	1	0.000	0.000
90.000000	4356.410256	4387.692308	4406.666667	3710.256410	4381.025641	4612.307692	4631.282051	4523.076923	4022.564103	4101.025641	4515.384615	4437.435897	4268.205128	3953.846154	1737.000000	1678.000000	30.112000	0.000000	0.000000	0.000000	0.000000	1	1	0	0	0	0	0	0	0	0	0	0	0	0	0	0	0	0	0	1	0.000	0.000
91.000000	4353.846154	4387.692308	4407.179487	3711.794872	4385.128205	4613.333333	4632.307692	4522.564103	4021.538462	4102.564103	4517.948718	4437.948718	4266.153846	3952.307692	1737.000000	1678.000000	30.119000	0.000000	0.000000	0.000000	0.000000	1	1	0	0	0	0	0	0	0	0	0	0	0	0	0	0	0	0	0	1	0.000	0.000
92.000000	4354.358974	4386.666667	4405.128205	3713.846154	4386.666667	4610.769231	4631.282051	4523.589744	4021.025641	4104.615385	4518.974359	4436.923077	4262.564103	3951.282051	1736.000000	1678.000000	30.128000	0.000000	0.000000	0.000000	0.000000	1	1	0	0	0	0	0	0	0	0	0	0	0	0	0	0	0	0	0	1	0.000	0.000
93.000000	4354.358974	4389.230769	4403.589744	3712.820513	4383.589744	4609.230769	4630.769231	4523.076923	4023.589744	4104.102564	4517.435897	4437.948718	4263.076923	3952.820513	1738.000000	1678.000000	30.142000	0.000000	0.000000	0.000000	0.000000	1	1	0	0	0	0	0	0	0	0	0	0	0	0	0	0	0	0	0	1	0.000	0.000
94.000000	4352.820513	4391.282051	4407.179487	3711.794872	4384.102564	4612.820513	4630.769231	4523.589744	4024.615385	4102.564103	4515.897436	4438.974359	4264.102564	3952.820513	1736.000000	1678.000000	30.143000	0.000000	0.000000	0.000000	0.000000	1	1	0	0	0	0	0	0	0	0	0	0	0	0	0	0	0	0	0	1	0.000	0.000
95.000000	4353.846154	4386.666667	4407.692308	3712.307692	4385.128205	4613.846154	4631.794872	4523.076923	4023.589744	4103.589744	4518.974359	4439.487179	4265.641026	3953.333333	1738.000000	1678.000000	30.150000	0.000000	0.000000	0.000000	0.000000	1	1	0	0	0	0	0	0	0	0	0	0	0	0	0	0	0	0	0	1	0.000	0.000
96.000000	4356.410256	4384.615385	4404.615385	3712.307692	4384.102564	4611.794872	4633.846154	4521.538462	4023.589744	4104.102564	4516.923077	4437.435897	4266.153846	3952.820513	1737.000000	1677.000000	30.158000	0.000000	0.000000	0.000000	0.000000	1	1	0	0	0	0	0	0	0	0	0	0	0	0	0	0	0	0	0	1	0.000	0.000
97.000000	4355.897436	4389.230769	4405.128205	3711.282051	4383.589744	4613.333333	4630.769231	4522.051282	4025.128205	4104.615385	4514.871795	4439.487179	4263.076923	3951.282051	1737.000000	1679.000000	30.170000	0.000000	0.000000	0.000000	0.000000	1	1	0	0	0	0	0	0	0	0	0	0	0	0	0	0	0	0	0	1	0.000	0.000
98.000000	4353.333333	4389.230769	4406.666667	3712.820513	4383.589744	4613.333333	4628.717949	4523.589744	4024.102564	4104.615385	4518.974359	4438.461538	4264.102564	3949.743590	1737.000000	1678.000000	30.174000	0.000000	0.000000	0.000000	0.000000	1	1	0	0	0	0	0	0	0	0	0	0	0	0	0	0	0	0	0	1	0.000	0.000
99.000000	4352.820513	4383.589744	4407.692308	3716.410256	4382.564103	4610.256410	4629.743590	4522.051282	4024.615385	4102.564103	4522.051282	4438.461538	4268.205128	3952.820513	1737.000000	1679.000000	30.182000	0.000000	0.000000	0.000000	0.000000	1	1	0	0	0	0	0	0	0	0	0	0	0	0	0	0	0	0	0	1	0.000	0.000
100.000000	4355.384615	4384.615385	4407.692308	3713.846154	4383.589744	4611.282051	4630.256410	4520.000000	4026.153846	4103.589744	4516.923077	4437.948718	4266.666667	3952.820513	1737.000000	1677.000000	30.189000	0.000000	0.000000	0.000000	0.000000	1	1	0	0	0	0	0	0	0	0	0	0	0	0	0	0	0	0	0	1	0.000	0.000
101.000000	4354.871795	4388.205128	4408.205128	3709.743590	4384.615385	4612.820513	4630.256410	4519.487179	4023.076923	4106.153846	4517.435897	4440.000000	4264.615385	3952.307692	1737.000000	1678.000000	30.201000	0.000000	0.000000	0.000000	0.000000	1	1	0	0	0	0	0	0	0	0	0	0	0	0	0	0	0	0	0	1	0.000	0.000
102.000000	4352.820513	4387.692308	4406.666667	3712.820513	4384.615385	4612.820513	4631.794872	4519.487179	4021.538462	4104.102564	4521.025641	4437.435897	4266.666667	3952.820513	1738.000000	1678.000000	30.205000	0.000000	0.000000	0.000000	0.000000	1	1	0	0	0	0	0	0	0	0	0	0	0	0	0	0	0	0	0	1	0.000	0.000
103.000000	4353.846154	4385.128205	4406.666667	3715.897436	4384.615385	4613.846154	4632.307692	4520.000000	4024.615385	4101.025641	4519.487179	4438.461538	4268.205128	3954.358974	1737.000000	1678.000000	30.213000	0.000000	0.000000	0.000000	0.000000	1	1	0	0	0	0	0	0	0	0	0	0	0	0	0	0	0	0	0	1	0.000	0.000
104.000000	4356.923077	4386.153846	4408.205128	3714.358974	4386.153846	4613.846154	4630.256410	4521.538462	4026.153846	4105.128205	4518.461538	4440.000000	4266.666667	3953.846154	1738.000000	1678.000000	30.221000	0.000000	0.000000	0.000000	0.000000	1	1	0	0	0	0	0	0	0	0	0	0	0	0	0	0	0	0	0	1	0.000	0.000
105.000000	4356.410256	4387.179487	4407.179487	3711.794872	4383.589744	4611.794872	4629.743590	4519.487179	4021.538462	4105.641026	4521.538462	4440.000000	4265.128205	3953.846154	1736.000000	1678.000000	30.233000	0.000000	0.000000	0.000000	0.000000	1	1	0	0	0	0	0	0	0	0	0	0	0	0	0	0	0	0	0	1	0.000	0.000
106.000000	4353.333333	4388.205128	4406.153846	3711.794872	4381.025641	4612.307692	4629.743590	4520.000000	4021.025641	4100.000000	4519.487179	4438.461538	4267.692308	3951.794872	1737.000000	1678.000000	30.236000	0.000000	0.000000	0.000000	0.000000	1	1	0	0	0	0	0	0	0	0	0	0	0	0	0	0	0	0	0	1	0.000	0.000
107.000000	4355.897436	4387.179487	4407.179487	3715.384615	4383.076923	4613.333333	4628.717949	4524.102564	4024.102564	4101.538462	4517.948718	4440.512821	4269.743590	3949.743590	1737.000000	1677.000000	30.244000	0.000000	0.000000	0.000000	0.000000	1	1	0	0	0	0	0	0	0	0	0	0	0	0	0	0	0	0	0	1	0.000	0.000
108.000000	4358.461538	4386.666667	4408.717949	3715.384615	4385.641026	4611.794872	4630.256410	4524.102564	4025.128205	4104.615385	4517.435897	4440.000000	4268.205128	3951.282051	1737.000000	1679.000000	30.252000	0.000000	0.000000	0.000000	0.000000	1	1	0	0	0	0	0	0	0	0	0	0	0	0	0	0	0	0	0	1	0.000	0.000
109.000000	4353.333333	4387.692308	4408.717949	3711.282051	4384.615385	4612.820513	4631.794872	4520.000000	4022.564103	4101.538462	4515.897436	4436.410256	4266.666667	3952.820513	1737.000000	1677.000000	30.265000	0.000000	0.000000	0.000000	0.000000	1	1	0	0	0	0	0	0	0	0	0	0	0	0	0	0	0	0	0	1	0.000	0.000
110.000000	4351.282051	4386.153846	4408.205128	3710.769231	4383.589744	4614.358974	4630.256410	4519.487179	4022.051282	4101.025641	4515.897436	4438.974359	4269.230769	3953.846154	1736.000000	1679.000000	30.268000	0.000000	0.000000	0.000000	0.000000	1	1	0	0	0	0	0	0	0	0	0	0	0	0	0	0	0	0	0	1	0.000	0.000
111.000000	4355.897436	4384.615385	4406.153846	3713.846154	4385.128205	4611.794872	4630.769231	4522.564103	4024.615385	4104.102564	4516.923077	4438.974359	4268.205128	3952.307692	1737.000000	1678.000000	30.276000	0.000000	0.000000	0.000000	0.000000	1	1	0	0	0	0	0	0	0	0	0	0	0	0	0	0	0	0	0	1	0.000	0.000
112.000000	4356.923077	4385.641026	4405.641026	3713.333333	4385.128205	4609.743590	4632.307692	4522.564103	4026.666667	4104.615385	4517.948718	4436.410256	4266.153846	3951.794872	1737.000000	1678.000000	30.283000	0.000000	0.000000	0.000000	0.000000	1	1	0	0	0	0	0	0	0	0	0	0	0	0	0	0	0	0	0	1	0.000	0.000
113.000000	4353.846154	4386.153846	4406.666667	3710.769231	4385.641026	4613.333333	4631.282051	4521.538462	4025.641026	4104.102564	4514.871795	4434.871795	4266.153846	3952.820513	1737.000000	1678.000000	30.296000	0.000000	0.000000	0.000000	0.000000	1	1	0	0	0	0	0	0	0	0	0	0	0	0	0	0	0	0	0	1	0.000	0.000
114.000000	4354.871795	4387.179487	4406.666667	3710.256410	4384.615385	4614.358974	4631.794872	4521.025641	4023.589744	4103.076923	4514.358974	4440.000000	4266.666667	3955.384615	1736.000000	1677.000000	30.300000	0.000000	0.000000	0.000000	0.000000	1	1	0	0	0	0	0	0	0	0	0	0	0	0	0	0	0	0	0	1	0.000	0.000
115.000000	4356.410256	4390.256410	4407.692308	3711.282051	4385.128205	4613.846154	4633.846154	4522.564103	4024.615385	4103.076923	4516.923077	4440.512821	4266.666667	3953.333333	1738.000000	1678.000000	30.307000	0.000000	0.000000	0.000000	0.000000	1	1	0	0	0	0	0	0	0	0	0	0	0	0	0	0	0	0	0	1	0.000	0.000
116.000000	4356.410256	4388.205128	4410.769231	3712.307692	4385.641026	4613.846154	4632.307692	4522.564103	4024.615385	4104.615385	4518.461538	4440.000000	4267.692308	3951.794872	1738.000000	1677.000000	30.315000	0.000000	0.000000	0.000000	0.000000	1	1	0	0	0	0	0	0	0	0	0	0	0	0	0	0	0	0	0	1	0.000	0.000
117.000000	4356.410256	4386.153846	4408.205128	3712.820513	4385.641026	4613.846154	4635.384615	4522.564103	4023.589744	4101.025641	4516.923077	4437.435897	4266.153846	3952.307692	1738.000000	1678.000000	30.328000	0.000000	0.000000	0.000000	0.000000	1	1	0	0	0	0	0	0	0	0	0	0	0	0	0	0	0	0	0	1	0.000	0.000
118.000000	4354.358974	4388.205128	4404.615385	3711.794872	4384.615385	4612.307692	4636.923077	4521.025641	4023.076923	4100.000000	4517.435897	4438.461538	4264.102564	3952.820513	1736.000000	1679.000000	30.331000	0.000000	0.000000	0.000000	0.000000	1	1	0	0	0	0	0	0	0	0	0	0	0	0	0	0	0	0	0	1	0.000	0.000
119.000000	4354.871795	4387.692308	4406.666667	3710.769231	4384.615385	4612.820513	4634.358974	4520.512821	4023.076923	4104.615385	4518.974359	4437.435897	4265.128205	3950.769231	1737.000000	1678.000000	30.338000	0.000000	0.000000	0.000000	0.000000	1	1	0	0	0	0	0	0	0	0	0	0	0	0	0	0	0	0	0	1	0.000	0.000
120.000000	4355.384615	4385.641026	4409.230769	3712.820513	4384.102564	4611.794872	4632.307692	4521.538462	4024.615385	4104.102564	4517.948718	4437.435897	4268.205128	3950.256410	1736.000000	1678.000000	30.346000	0.000000	0.000000	0.000000	0.000000	1	1	0	0	0	0	0	0	0	0	0	0	0	0	0	0	0	0	0	1	0.000	0.000
121.000000	4355.384615	4388.205128	4406.666667	3713.333333	4386.153846	4610.256410	4633.333333	4522.051282	4026.153846	4103.076923	4517.435897	4437.435897	4267.692308	3951.282051	1737.000000	1678.000000	30.359000	0.000000	0.000000	0.000000	0.000000	1	1	0	0	0	0	0	0	0	0	0	0	0	0	0	0	0	0	0	1	0.000	0.000
122.000000	4353.333333	4389.230769	4403.076923	3708.717949	4386.153846	4610.256410	4633.846154	4522.564103	4024.102564	4106.153846	4517.435897	4437.435897	4266.153846	3952.307692	1736.000000	1678.000000	30.363000	0.000000	0.000000	0.000000	0.000000	1	1	0	0	0	0	0	0	0	0	0	0	0	0	0	0	0	0	0	1	0.000	0.000
123.000000	4351.794872	4387.179487	4405.128205	3710.256410	4382.051282	4611.282051	4633.846154	4522.051282	4022.051282	4104.102564	4516.923077	4437.948718	4266.666667	3952.307692	1737.000000	1678.000000	30.369000	0.000000	0.000000	0.000000	0.000000	1	1	0	0	0	0	0	0	0	0	0	0	0	0	0	0	0	0	0	1	0.000	0.000
124.000000	4354.358974	4385.641026	4409.230769	3715.897436	4380.512821	4611.282051	4632.307692	4522.564103	4023.076923	4100.512821	4520.512821	4438.974359	4267.179487	3951.282051	1736.000000	1678.000000	30.377000	0.000000	0.000000	0.000000	0.000000	1	1	0	0	0	0	0	0	0	0	0	0	0	0	0	0	0	0	0	1	0.000	0.000
125.000000	4357.435897	4386.666667	4407.692308	3714.871795	4384.102564	4612.820513	4631.794872	4523.076923	4024.615385	4103.589744	4521.538462	4438.461538	4266.666667	3950.256410	1737.000000	1679.000000	30.389000	0.000000	0.000000	0.000000	0.000000	1	1	0	0	0	0	0	0	0	0	0	0	0	0	0	0	0	0	0	1	0.000	0.000
126.000000	4355.897436	4387.692308	4404.102564	3711.282051	4385.641026	4612.307692	4632.820513	4521.538462	4025.128205	4104.615385	4517.435897	4436.923077	4266.666667	3950.256410	1736.000000	1678.000000	30.393000	0.000000	0.000000	0.000000	0.000000	1	1	0	0	0	0	0	0	0	0	0	0	0	0	0	0	0	0	0	1	0.000	0.000
127.000000	4351.794872	4386.666667	4405.128205	3712.307692	4384.615385	4611.282051	4632.307692	4520.000000	4025.641026	4098.974359	4516.923077	4437.948718	4267.692308	3951.794872	1736.000000	1679.000000	30.401000	0.000000	0.000000	0.000000	0.000000	1	1	0	0	0	0	0	0	0	0	0	0	0	0	0	0	0	0	0	1	0.000	0.000
128.000000	4353.333333	4386.666667	4405.641026	3712.820513	4384.102564	4613.846154	4631.282051	4522.564103	4025.128205	4098.974359	4520.000000	4436.923077	4267.692308	3952.307692	1738.000000	1677.000000	30.409000	0.000000	0.000000	0.000000	0.000000	1	1	0	0	0	0	0	0	0	0	0	0	0	0	0	0	0	0	0	1	0.000	0.000
0.000000	4354.358974	4387.692308	4405.128205	3711.794872	4384.102564	4614.358974	4631.282051	4524.102564	4024.615385	4103.589744	4520.000000	4440.512821	4266.666667	3952.307692	1736.000000	1678.000000	30.422000	0.000000	0.000000	0.000000	0.000000	1	1	0	0	0	0	0	0	0	0	0	0	0	0	0	0	0	0	0	1	0.000	0.000
1.000000	4354.871795	4389.230769	4407.692308	3712.820513	4385.128205	4611.794872	4631.794872	4525.128205	4025.128205	4103.589744	4516.923077	4440.512821	4265.641026	3951.794872	1738.000000	1678.000000	30.424000	0.000000	0.000000	0.000000	0.000000	1	1	0	0	0	0	0	0	0	0	0	0	0	0	0	0	0	0	0	1	0.000	0.000
2.000000	4356.923077	4387.179487	4411.282051	3712.820513	4385.128205	4610.256410	4631.282051	4523.076923	4024.615385	4101.025641	4517.435897	4440.000000	4268.205128	3953.846154	1737.000000	1678.000000	30.432000	0.000000	0.000000	0.000000	0.000000	1	1	0	0	0	0	0	0	0	0	0	0	0	0	0	0	0	0	0	1	0.000	0.000
3.000000	4358.461538	4384.615385	4409.230769	3713.333333	4384.102564	4612.307692	4631.794872	4520.000000	4023.076923	4103.076923	4517.435897	4437.435897	4268.717949	3954.358974	1737.000000	1678.000000	30.440000	0.000000	0.000000	0.000000	0.000000	1	1	0	0	0	0	0	0	0	0	0	0	0	0	0	0	0	0	0	1	0.000	0.000
4.000000	4356.923077	4385.128205	4407.692308	3716.410256	4382.564103	4612.307692	4631.282051	4521.538462	4022.564103	4104.102564	4518.461538	4438.974359	4268.717949	3951.794872	1737.000000	1678.000000	30.455000	0.000000	0.000000	0.000000	0.000000	1	1	0	0	0	0	0	0	0	0	0	0	0	0	0	0	0	0	0	1	0.000	0.000
5.000000	4355.897436	4388.717949	4408.205128	3713.846154	4384.102564	4613.333333	4630.769231	4523.589744	4024.615385	4101.538462	4518.974359	4437.948718	4268.717949	3950.769231	1737.000000	1678.000000	30.455000	0.000000	0.000000	0.000000	0.000000	1	1	0	0	0	0	0	0	0	0	0	0	0	0	0	0	0	0	0	1	0.000	0.000
6.000000	4355.384615	4387.692308	4409.743590	3710.256410	4384.102564	4615.384615	4630.256410	4520.000000	4024.615385	4103.076923	4518.974359	4438.974359	4267.692308	3953.333333	1737.000000	1678.000000	30.463000	0.000000	0.000000	0.000000	0.000000	1	1	0	0	0	0	0	0	0	0	0	0	0	0	0	0	0	0	0	1	0.000	0.000
7.000000	4353.846154	4385.128205	4408.205128	3711.282051	4383.076923	4616.410256	4634.358974	4519.487179	4022.564103	4105.128205	4520.000000	4438.461538	4267.692308	3953.333333	1738.000000	1678.000000	30.471000	0.000000	0.000000	0.000000	0.000000	1	1	0	0	0	0	0	0	0	0	0	0	0	0	0	0	0	0	0	1	0.000	0.000
8.000000	4353.846154	4385.641026	4405.641026	3712.307692	4383.076923	4614.358974	4634.871795	4521.538462	4023.076923	4102.564103	4520.000000	4438.974359	4268.717949	3952.820513	1737.000000	1677.000000	30.486000	0.000000	0.000000	0.000000	0.000000	1	1	0	0	0	0	0	0	0	0	0	0	0	0	0	0	0	0	0	1	0.000	0.000
9.000000	4355.897436	4386.153846	4406.153846	3711.282051	4385.641026	4612.820513	4630.256410	4521.538462	4023.589744	4101.538462	4518.461538	4439.487179	4267.179487	3954.358974	1737.000000	1679.000000	30.487000	0.000000	0.000000	0.000000	0.000000	1	1	0	0	0	0	0	0	0	0	0	0	0	0	0	0	0	0	0	1	0.000	0.000
10.000000	4355.897436	4385.641026	4405.641026	3711.282051	4385.641026	4611.282051	4628.717949	4521.538462	4023.589744	4104.102564	4518.974359	4437.435897	4267.692308	3956.410256	1738.000000	1677.000000	30.494000	0.000000	0.000000	0.000000	0.000000	1	1	0	0	0	0	0	0	0	0	0	0	0	0	0	0	0	0	0	1	0.000	0.000
11.000000	4353.846154	4386.666667	4405.128205	3712.820513	4383.076923	4609.230769	4631.282051	4523.076923	4024.102564	4104.615385	4518.461538	4436.923077	4268.717949	3955.384615	1736.000000	1678.000000	30.501000	0.000000	0.000000	0.000000	0.000000	1	1	0	0	0	0	0	0	0	0	0	0	0	0	0	0	0	0	0	1	0.000	0.000
12.000000	4355.384615	4387.692308	4406.153846	3712.307692	4382.564103	4609.230769	4631.794872	4522.564103	4024.615385	4103.076923	4516.923077	4437.435897	4266.666667	3952.307692	1737.000000	1678.000000	30.515000	0.000000	0.000000	0.000000	0.000000	1	1	0	0	0	0	0	0	0	0	0	0	0	0	0	0	0	0	0	1	0.000	0.000
13.000000	4359.487179	4387.692308	4407.692308	3711.282051	4383.589744	4612.820513	4631.794872	4523.076923	4024.102564	4104.615385	4517.948718	4438.461538	4266.666667	3953.333333	1736.000000	1678.000000	30.517000	0.000000	0.000000	0.000000	0.000000	1	1	0	0	0	0	0	0	0	0	0	0	0	0	0	0	0	0	0	1	0.000	0.000
14.000000	4358.461538	4387.692308	4407.179487	3711.282051	4383.589744	4613.333333	4632.307692	4523.076923	4024.615385	4105.641026	4517.435897	4437.948718	4267.692308	3953.333333	1736.000000	1678.000000	30.526000	0.000000	0.000000	0.000000	0.000000	1	1	0	0	0	0	0	0	0	0	0	0	0	0	0	0	0	0	0	1	0.000	0.000
15.000000	4354.871795	4388.717949	4407.692308	3712.307692	4382.564103	4610.256410	4630.769231	4518.461538	4024.615385	4104.615385	4516.923077	4438.461538	4267.692308	3952.307692	1737.000000	1677.000000	30.533000	0.000000	0.000000	0.000000	0.000000	1	1	0	0	0	0	0	0	0	0	0	0	0	0	0	0	0	0	0	1	0.000	0.000
16.000000	4354.358974	4388.717949	4407.692308	3711.794872	4384.615385	4610.769231	4630.769231	4520.000000	4022.564103	4102.564103	4518.974359	4438.461538	4267.692308	3952.307692	1737.000000	1678.000000	30.548000	0.000000	0.000000	0.000000	0.000000	1	1	0	0	0	0	0	0	0	0	0	0	0	0	0	0	0	0	0	1	0.000	0.000
17.000000	4358.461538	4386.666667	4408.205128	3712.307692	4384.102564	4610.769231	4631.282051	4524.615385	4022.051282	4103.076923	4519.487179	4438.461538	4268.205128	3953.846154	1737.000000	1678.000000	30.550000	0.000000	0.000000	0.000000	0.000000	1	1	0	0	0	0	0	0	0	0	0	0	0	0	0	0	0	0	0	1	0.000	0.000
18.000000	4358.461538	4385.641026	4409.743590	3713.333333	4383.076923	4610.769231	4630.769231	4523.589744	4023.076923	4103.076923	4516.410256	4435.897436	4265.641026	3951.282051	1737.000000	1678.000000	30.558000	0.000000	0.000000	0.000000	0.000000	1	1	0	0	0	0	0	0	0	0	0	0	0	0	0	0	0	0	0	1	0.000	0.000
19.000000	4352.820513	4386.153846	4409.743590	3712.820513	4383.076923	4613.333333	4629.743590	4519.487179	4024.102564	4098.974359	4516.923077	4436.923077	4265.641026	3951.794872	1737.000000	1678.000000	30.566000	0.000000	0.000000	0.000000	0.000000	1	1	0	0	0	0	0	0	0	0	0	0	0	0	0	0	0	0	0	1	0.000	0.000
20.000000	4351.794872	4386.666667	4408.205128	3713.333333	4384.615385	4614.871795	4628.717949	4521.025641	4023.076923	4097.948718	4520.000000	4435.897436	4266.666667	3955.384615	1736.000000	1679.000000	30.580000	0.000000	0.000000	0.000000	0.000000	1	1	0	0	0	0	0	0	0	0	0	0	0	0	0	0	0	0	0	1	0.000	0.000
21.000000	4354.358974	4385.641026	4408.717949	3712.307692	4383.076923	4613.333333	4627.692308	4522.564103	4022.051282	4098.461538	4519.487179	4437.948718	4267.692308	3955.897436	1737.000000	1677.000000	30.581000	0.000000	0.000000	0.000000	0.000000	1	1	0	0	0	0	0	0	0	0	0	0	0	0	0	0	0	0	0	1	0.000	0.000
22.000000	4354.358974	4387.692308	4408.205128	3712.307692	4383.076923	4613.333333	4630.769231	4523.589744	4024.615385	4097.948718	4514.358974	4437.948718	4267.179487	3952.307692	1736.000000	1678.000000	30.589000	0.000000	0.000000	0.000000	0.000000	1	1	0	0	0	0	0	0	0	0	0	0	0	0	0	0	0	0	0	1	0.000	0.000
23.000000	4354.871795	4389.230769	4407.692308	3713.846154	4384.615385	4614.358974	4632.307692	4523.589744	4025.641026	4102.051282	4516.410256	4438.461538	4266.153846	3952.307692	1737.000000	1678.000000	30.597000	0.000000	0.000000	0.000000	0.000000	1	1	0	0	0	0	0	0	0	0	0	0	0	0	0	0	0	0	0	1	0.000	0.000
24.000000	4356.410256	4386.153846	4407.179487	3713.846154	4383.589744	4613.846154	4630.769231	4524.102564	4023.589744	4104.102564	4520.512821	4437.948718	4265.641026	3952.820513	1736.000000	1677.000000	30.610000	0.000000	0.000000	0.000000	0.000000	1	1	0	0	0	0	0	0	0	0	0	0	0	0	0	0	0	0	0	1	0.000	0.000
25.000000	4355.384615	4383.589744	4406.153846	3712.820513	4380.512821	4613.333333	4630.256410	4524.615385	4022.564103	4102.051282	4518.461538	4437.435897	4264.615385	3951.282051	1737.000000	1678.000000	30.612000	0.000000	0.000000	0.000000	0.000000	1	1	0	0	0	0	0	0	0	0	0	0	0	0	0	0	0	0	0	1	0.000	0.000
26.000000	4356.923077	4385.641026	4406.666667	3714.358974	4383.589744	4613.846154	4634.358974	4523.589744	4023.076923	4103.076923	4515.897436	4437.435897	4266.153846	3953.333333	1737.000000	1678.000000	30.621000	0.000000	0.000000	0.000000	0.000000	1	1	0	0	0	0	0	0	0	0	0	0	0	0	0	0	0	0	0	1	0.000	0.000
27.000000	4357.948718	4387.692308	4407.692308	3715.384615	4388.717949	4613.333333	4635.384615	4523.076923	4022.564103	4103.589744	4517.435897	4438.461538	4269.230769	3955.897436	1737.000000	1678.000000	30.628000	0.000000	0.000000	0.000000	0.000000	1	1	0	0	0	0	0	0	0	0	0	0	0	0	0	0	0	0	0	1	0.000	0.000
28.000000	4355.897436	4386.666667	4407.692308	3713.846154	4384.615385	4613.333333	4631.794872	4522.564103	4022.051282	4102.564103	4517.948718	4436.923077	4268.717949	3953.333333	1738.000000	1678.000000	30.642000	0.000000	0.000000	0.000000	0.000000	1	1	0	0	0	0	0	0	0	0	0	0	0	0	0	0	0	0	0	1	0.000	0.000
29.000000	4356.410256	4386.153846	4407.692308	3712.820513	4380.512821	4612.820513	4630.769231	4522.051282	4023.076923	4105.128205	4517.948718	4434.871795	4265.641026	3952.307692	1737.000000	1678.000000	30.643000	0.000000	0.000000	0.000000	0.000000	1	1	0	0	0	0	0	0	0	0	0	0	0	0	0	0	0	0	0	1	0.000	0.000
30.000000	4357.435897	4387.179487	4408.717949	3712.820513	4384.615385	4610.769231	4632.307692	4521.538462	4024.102564	4104.102564	4517.948718	4440.000000	4265.641026	3953.846154	1737.000000	1678.000000	30.651000	0.000000	0.000000	0.000000	0.000000	1	1	0	0	0	0	0	0	0	0	0	0	0	0	0	0	0	0	0	1	0.000	0.000
31.000000	4355.897436	4388.205128	4407.692308	3715.384615	4388.205128	4612.307692	4632.820513	4522.564103	4024.102564	4103.076923	4515.897436	4438.461538	4266.153846	3952.820513	1736.000000	1678.000000	30.659000	0.000000	0.000000	0.000000	0.000000	1	1	0	0	0	0	0	0	0	0	0	0	0	0	0	0	0	0	0	1	0.000	0.000
32.000000	4355.384615	4387.179487	4406.153846	3715.897436	4385.641026	4614.871795	4630.256410	4521.025641	4022.564103	4105.641026	4517.435897	4436.923077	4264.615385	3951.794872	1738.000000	1677.000000	30.671000	0.000000	0.000000	0.000000	0.000000	1	1	0	0	0	0	0	0	0	0	0	0	0	0	0	0	0	0	0	1	0.000	0.000
33.000000	4356.923077	4388.205128	4405.128205	3714.358974	4384.615385	4614.871795	4629.230769	4518.974359	4023.589744	4102.564103	4518.974359	4438.974359	4266.666667	3952.307692	1736.000000	1678.000000	30.674000	0.000000	0.000000	0.000000	0.000000	1	1	0	0	0	0	0	0	0	0	0	0	0	0	0	0	0	0	0	1	0.000	0.000
34.000000	4356.410256	4389.230769	4408.205128	3714.358974	4384.102564	4613.846154	4630.769231	4518.974359	4024.102564	4097.948718	4518.974359	4441.025641	4267.692308	3953.846154	1738.000000	1678.000000	30.682000	0.000000	0.000000	0.000000	0.000000	1	1	0	0	0	0	0	0	0	0	0	0	0	0	0	0	0	0	0	1	0.000	0.000
35.000000	4354.358974	4386.153846	4408.205128	3712.307692	4383.589744	4613.846154	4632.820513	4522.564103	4023.076923	4102.564103	4518.461538	4435.897436	4263.589744	3952.820513	1737.000000	1678.000000	30.690000	0.000000	0.000000	0.000000	0.000000	1	1	0	0	0	0	0	0	0	0	0	0	0	0	0	0	0	0	0	1	0.000	0.000
36.000000	4355.897436	4383.589744	4406.666667	3711.282051	4382.564103	4610.769231	4631.794872	4523.076923	4023.076923	4107.179487	4520.512821	4437.948718	4263.589744	3952.307692	1736.000000	1679.000000	30.703000	0.000000	0.000000	0.000000	0.000000	1	1	0	0	0	0	0	0	0	0	0	0	0	0	0	0	0	0	0	1	0.000	0.000
37.000000	4357.435897	4386.153846	4406.666667	3711.794872	4382.564103	4611.794872	4630.256410	4520.512821	4023.589744	4101.538462	4518.974359	4440.000000	4267.179487	3953.333333	1737.000000	1677.000000	30.706000	0.000000	0.000000	0.000000	0.000000	1	1	0	0	0	0	0	0	0	0	0	0	0	0	0	0	0	0	0	1	0.000	0.000
38.000000	4354.871795	4386.666667	4408.205128	3709.743590	4383.589744	4614.358974	4631.282051	4522.051282	4022.564103	4097.948718	4516.923077	4438.974359	4267.179487	3955.384615	1736.000000	1678.000000	30.713000	0.000000	0.000000	0.000000	0.000000	1	1	0	0	0	0	0	0	0	0	0	0	0	0	0	0	0	0	0	1	0.000	0.000
39.000000	4353.846154	4384.615385	4408.717949	3709.743590	4384.102564	4611.282051	4634.358974	4524.615385	4023.589744	4103.589744	4517.435897	4435.384615	4266.153846	3952.820513	1737.000000	1678.000000	30.721000	0.000000	0.000000	0.000000	0.000000	1	1	0	0	0	0	0	0	0	0	0	0	0	0	0	0	0	0	0	1	0.000	0.000
40.000000	4357.948718	4386.153846	4408.205128	3714.358974	4383.076923	4610.256410	4632.307692	4523.076923	4024.102564	4106.666667	4518.461538	4437.435897	4267.692308	3951.794872	1736.000000	1678.000000	30.734000	0.000000	0.000000	0.000000	0.000000	1	1	0	0	0	0	0	0	0	0	0	0	0	0	0	0	0	0	0	1	0.000	0.000
41.000000	4358.974359	4387.692308	4407.692308	3714.358974	4383.589744	4613.846154	4629.230769	4521.538462	4024.615385	4103.076923	4519.487179	4442.051282	4267.179487	3952.307692	1737.000000	1678.000000	30.737000	0.000000	0.000000	0.000000	0.000000	1	1	0	0	0	0	0	0	0	0	0	0	0	0	0	0	0	0	0	1	0.000	0.000
42.000000	4354.871795	4385.128205	4407.692308	3711.282051	4384.615385	4613.333333	4629.743590	4522.564103	4024.615385	4102.051282	4519.487179	4441.025641	4266.153846	3952.820513	1736.000000	1678.000000	30.745000	0.000000	0.000000	0.000000	0.000000	1	1	0	0	0	0	0	0	0	0	0	0	0	0	0	0	0	0	0	1	0.000	0.000
43.000000	4352.820513	4384.615385	4408.205128	3713.333333	4382.051282	4610.256410	4630.769231	4522.564103	4023.076923	4104.102564	4517.435897	4436.410256	4268.205128	3952.820513	1737.000000	1678.000000	30.753000	0.000000	0.000000	0.000000	0.000000	1	1	0	0	0	0	0	0	0	0	0	0	0	0	0	0	0	0	0	1	0.000	0.000
44.000000	4355.384615	4387.179487	4407.179487	3714.358974	4382.051282	4611.794872	4628.717949	4522.564103	4022.051282	4105.641026	4517.435897	4435.897436	4268.717949	3953.333333	1737.000000	1678.000000	30.765000	0.000000	0.000000	0.000000	0.000000	1	1	0	0	0	0	0	0	0	0	0	0	0	0	0	0	0	0	0	1	0.000	0.000
45.000000	4354.871795	4386.666667	4406.666667	3712.307692	4384.102564	4613.333333	4628.717949	4523.076923	4023.589744	4103.076923	4518.974359	4440.000000	4266.153846	3953.846154	1737.000000	1678.000000	30.768000	0.000000	0.000000	0.000000	0.000000	1	1	0	0	0	0	0	0	0	0	0	0	0	0	0	0	0	0	0	1	0.000	0.000
46.000000	4353.333333	4386.153846	4407.179487	3710.769231	4383.589744	4611.794872	4630.769231	4522.564103	4024.102564	4099.487179	4516.923077	4437.948718	4265.128205	3952.307692	1737.000000	1678.000000	30.776000	0.000000	0.000000	0.000000	0.000000	1	1	0	0	0	0	0	0	0	0	0	0	0	0	0	0	0	0	0	1	0.000	0.000
47.000000	4353.333333	4387.179487	4409.230769	3712.307692	4382.564103	4610.256410	4628.205128	4522.564103	4022.051282	4102.051282	4515.897436	4437.948718	4268.205128	3953.333333	1737.000000	1678.000000	30.784000	0.000000	0.000000	0.000000	0.000000	1	1	0	0	0	0	0	0	0	0	0	0	0	0	0	0	0	0	0	1	0.000	0.000
48.000000	4355.384615	4387.179487	4408.205128	3714.358974	4384.615385	4609.743590	4628.205128	4523.589744	4022.564103	4105.641026	4520.000000	4438.461538	4270.256410	3954.358974	1736.000000	1678.000000	30.797000	0.000000	0.000000	0.000000	0.000000	1	1	0	0	0	0	0	0	0	0	0	0	0	0	0	0	0	0	0	1	0.000	0.000
49.000000	4355.384615	4387.692308	4407.179487	3713.846154	4382.564103	4609.230769	4629.230769	4523.076923	4023.076923	4104.102564	4521.538462	4440.000000	4268.717949	3954.871795	1737.000000	1678.000000	30.799000	0.000000	0.000000	0.000000	0.000000	1	1	0	0	0	0	0	0	0	0	0	0	0	0	0	0	0	0	0	1	0.000	0.000
50.000000	4354.358974	4387.179487	4408.205128	3713.846154	4379.487179	4612.307692	4628.717949	4521.025641	4022.051282	4104.615385	4517.948718	4436.923077	4268.205128	3951.794872	1736.000000	1678.000000	30.807000	0.000000	0.000000	0.000000	0.000000	1	1	0	0	0	0	0	0	0	0	0	0	0	0	0	0	0	0	0	1	0.000	0.000
51.000000	4356.410256	4385.641026	4408.717949	3714.871795	4383.589744	4614.871795	4629.743590	4518.974359	4022.564103	4105.641026	4518.461538	4436.923077	4269.743590	3952.307692	1738.000000	1677.000000	30.816000	0.000000	0.000000	0.000000	0.000000	1	1	0	0	0	0	0	0	0	0	0	0	0	0	0	0	0	0	0	1	0.000	0.000
52.000000	4357.435897	4387.692308	4405.641026	3712.820513	4388.717949	4613.846154	4631.794872	4520.000000	4025.128205	4102.051282	4520.000000	4436.923077	4268.205128	3954.871795	1735.000000	1678.000000	30.829000	0.000000	0.000000	0.000000	0.000000	1	1	0	0	0	0	0	0	0	0	0	0	0	0	0	0	0	0	0	1	0.000	0.000
53.000000	4354.358974	4389.230769	4407.179487	3710.769231	4382.564103	4611.794872	4629.230769	4517.948718	4024.615385	4102.051282	4518.461538	4439.487179	4266.666667	3955.384615	1738.000000	1678.000000	30.831000	0.000000	0.000000	0.000000	0.000000	1	1	0	0	0	0	0	0	0	0	0	0	0	0	0	0	0	0	0	1	0.000	0.000
54.000000	4353.846154	4388.205128	4407.692308	3712.820513	4378.461538	4613.333333	4630.256410	4518.461538	4022.564103	4105.128205	4517.948718	4436.410256	4265.641026	3953.333333	1737.000000	1678.000000	30.840000	0.000000	0.000000	0.000000	0.000000	1	1	0	0	0	0	0	0	0	0	0	0	0	0	0	0	0	0	0	1	0.000	0.000
55.000000	4355.384615	4386.666667	4406.153846	3712.307692	4381.538462	4613.846154	4630.769231	4521.025641	4021.538462	4104.615385	4518.974359	4435.897436	4266.153846	3952.820513	1737.000000	1679.000000	30.846000	0.000000	0.000000	0.000000	0.000000	1	1	0	0	0	0	0	0	0	0	0	0	0	0	0	0	0	0	0	1	0.000	0.000
56.000000	4356.410256	4386.666667	4406.153846	3711.794872	4383.076923	4612.820513	4629.743590	4521.538462	4022.051282	4102.564103	4519.487179	4437.948718	4266.153846	3952.820513	1737.000000	1677.000000	30.858000	0.000000	0.000000	0.000000	0.000000	1	1	0	0	0	0	0	0	0	0	0	0	0	0	0	0	0	0	0	1	0.000	0.000
57.000000	4355.384615	4385.128205	4406.666667	3714.358974	4382.564103	4612.307692	4631.282051	4518.461538	4022.564103	4101.538462	4519.487179	4437.948718	4266.666667	3952.820513	1736.000000	1678.000000	30.862000	0.000000	0.000000	0.000000	0.000000	1	1	0	0	0	0	0	0	0	0	0	0	0	0	0	0	0	0	0	1	0.000	0.000
58.000000	4353.846154	4385.128205	4406.153846	3714.871795	4384.102564	4612.820513	4633.333333	4519.487179	4023.589744	4103.589744	4517.435897	4436.923077	4267.692308	3951.282051	1737.000000	1678.000000	30.870000	0.000000	0.000000	0.000000	0.000000	1	1	0	0	0	0	0	0	0	0	0	0	0	0	0	0	0	0	0	1	0.000	0.000
59.000000	4355.384615	4386.666667	4407.692308	3713.333333	4384.615385	4613.846154	4631.282051	4522.051282	4024.615385	4104.615385	4515.384615	4440.000000	4268.205128	3951.794872	1738.000000	1678.000000	30.878000	0.000000	0.000000	0.000000	0.000000	1	1	0	0	0	0	0	0	0	0	0	0	0	0	0	0	0	0	0	1	0.000	0.000
60.000000	4358.461538	4388.205128	4408.717949	3713.333333	4383.589744	4614.871795	4629.743590	4520.000000	4024.615385	4103.589744	4518.461538	4441.538462	4267.692308	3953.846154	1738.000000	1678.000000	30.891000	0.000000	0.000000	0.000000	0.000000	1	1	0	0	0	0	0	0	0	0	0	0	0	0	0	0	0	0	0	1	0.000	0.000
61.000000	4358.461538	4389.743590	4407.692308	3712.820513	4383.076923	4613.333333	4631.282051	4519.487179	4024.615385	4102.564103	4520.000000	4437.948718	4267.692308	3954.358974	1737.000000	1678.000000	30.894000	0.000000	0.000000	0.000000	0.000000	1	1	0	0	0	0	0	0	0	0	0	0	0	0	0	0	0	0	0	1	0.000	0.000
62.000000	4355.897436	4390.256410	4407.692308	3712.307692	4381.538462	4611.794872	4631.794872	4521.538462	4025.128205	4103.589744	4517.435897	4437.435897	4268.205128	3953.333333	1737.000000	1678.000000	30.901000	0.000000	0.000000	0.000000	0.000000	1	1	0	0	0	0	0	0	0	0	0	0	0	0	0	0	0	0	0	1	0.000	0.000
63.000000	4354.871795	4389.743590	4407.692308	3714.358974	4384.102564	4612.307692	4630.769231	4521.538462	4023.589744	4103.589744	4517.948718	4437.435897	4267.692308	3951.794872	1736.000000	1678.000000	30.910000	0.000000	0.000000	0.000000	0.000000	1	1	0	0	0	0	0	0	0	0	0	0	0	0	0	0	0	0	0	1	0.000	0.000
64.000000	4353.333333	4386.666667	4406.153846	3715.897436	4385.128205	4613.846154	4628.205128	4518.461538	4023.076923	4104.102564	4521.538462	4439.487179	4267.692308	3951.794872	1738.000000	1678.000000	30.923000	0.000000	0.000000	0.000000	0.000000	1	1	0	0	0	0	0	0	0	0	0	0	0	0	0	0	0	0	0	1	0.000	0.000
65.000000	4354.871795	4384.615385	4406.153846	3713.333333	4382.051282	4615.384615	4628.717949	4520.512821	4024.102564	4105.128205	4518.461538	4437.435897	4268.205128	3951.794872	1737.000000	1678.000000	30.925000	0.000000	0.000000	0.000000	0.000000	1	1	0	0	0	0	0	0	0	0	0	0	0	0	0	0	0	0	0	1	0.000	0.000
66.000000	4355.897436	4385.641026	4408.717949	3710.769231	4380.000000	4614.358974	4629.230769	4522.564103	4022.564103	4104.102564	4517.435897	4437.435897	4267.692308	3951.794872	1736.000000	1679.000000	30.932000	0.000000	0.000000	0.000000	0.000000	1	1	0	0	0	0	0	0	0	0	0	0	0	0	0	0	0	0	0	1	0.000	0.000
67.000000	4353.333333	4387.692308	4407.692308	3711.794872	4383.589744	4613.333333	4629.230769	4521.025641	4021.025641	4104.102564	4520.000000	4437.435897	4266.153846	3951.282051	1737.000000	1677.000000	30.940000	0.000000	0.000000	0.000000	0.000000	1	1	0	0	0	0	0	0	0	0	0	0	0	0	0	0	0	0	0	1	0.000	0.000
68.000000	4353.846154	4386.666667	4406.153846	3714.358974	4384.615385	4613.333333	4629.743590	4520.000000	4022.564103	4105.128205	4520.000000	4441.538462	4266.666667	3952.820513	1737.000000	1679.000000	30.953000	0.000000	0.000000	0.000000	0.000000	1	1	0	0	0	0	0	0	0	0	0	0	0	0	0	0	0	0	0	1	0.000	0.000
69.000000	4355.897436	4387.692308	4406.666667	3713.333333	4383.589744	4614.358974	4632.307692	4523.076923	4024.102564	4103.076923	4517.948718	4439.487179	4267.179487	3953.333333	1737.000000	1678.000000	30.956000	0.000000	0.000000	0.000000	0.000000	1	1	0	0	0	0	0	0	0	0	0	0	0	0	0	0	0	0	0	1	0.000	0.000
70.000000	4355.897436	4389.230769	4407.692308	3712.307692	4385.128205	4611.282051	4631.794872	4523.589744	4024.102564	4101.025641	4520.000000	4435.897436	4267.692308	3952.307692	1737.000000	1678.000000	30.964000	0.000000	0.000000	0.000000	0.000000	1	1	0	0	0	0	0	0	0	0	0	0	0	0	0	0	0	0	0	1	0.000	0.000
71.000000	4355.897436	4388.205128	4408.205128	3713.846154	4387.692308	4608.717949	4629.743590	4523.589744	4025.641026	4103.076923	4518.974359	4434.871795	4268.205128	3950.256410	1738.000000	1678.000000	30.971000	0.000000	0.000000	0.000000	0.000000	1	1	0	0	0	0	0	0	0	0	0	0	0	0	0	0	0	0	0	1	0.000	0.000
72.000000	4355.384615	4385.641026	4408.205128	3714.358974	4384.102564	4612.307692	4629.230769	4524.102564	4025.641026	4103.589744	4515.897436	4438.461538	4266.666667	3951.282051	1737.000000	1678.000000	30.985000	0.000000	0.000000	0.000000	0.000000	1	1	0	0	0	0	0	0	0	0	0	0	0	0	0	0	0	0	0	1	0.000	0.000
73.000000	4353.846154	4386.666667	4407.179487	3712.307692	4384.102564	4613.846154	4632.307692	4523.589744	4023.076923	4102.564103	4518.461538	4441.538462	4267.179487	3952.820513	1738.000000	1678.000000	30.987000	0.000000	0.000000	0.000000	0.000000	1	1	0	0	0	0	0	0	0	0	0	0	0	0	0	0	0	0	0	1	0.000	0.000
74.000000	4357.948718	4385.641026	4407.692308	3709.743590	4387.692308	4611.282051	4632.820513	4522.564103	4022.051282	4104.615385	4521.025641	4440.512821	4268.717949	3952.820513	1737.000000	1678.000000	30.995000	0.000000	0.000000	0.000000	0.000000	1	1	0	0	0	0	0	0	0	0	0	0	0	0	0	0	0	0	0	1	0.000	0.000
75.000000	4359.487179	4384.102564	4409.230769	3710.256410	4386.153846	4611.794872	4632.820513	4522.051282	4024.102564	4103.589744	4519.487179	4436.410256	4265.128205	3952.307692	1737.000000	1678.000000	31.003000	0.000000	0.000000	0.000000	0.000000	1	1	0	0	0	0	0	0	0	0	0	0	0	0	0	0	0	0	0	1	0.000	0.000
76.000000	4353.846154	4385.641026	4408.717949	3712.820513	4383.076923	4613.846154	4633.333333	4521.538462	4026.153846	4101.538462	4518.974359	4435.384615	4262.564103	3953.846154	1737.000000	1677.000000	31.017000	0.000000	0.000000	0.000000	0.000000	1	1	0	0	0	0	0	0	0	0	0	0	0	0	0	0	0	0	0	1	0.000	0.000
77.000000	4351.794872	4385.641026	4408.205128	3713.333333	4384.615385	4611.794872	4633.846154	4521.025641	4025.128205	4104.615385	4518.974359	4438.461538	4266.666667	3954.358974	1737.000000	1679.000000	31.017000	0.000000	0.000000	0.000000	0.000000	1	1	0	0	0	0	0	0	0	0	0	0	0	0	0	0	0	0	0	1	0.000	0.000
78.000000	4354.871795	4386.153846	4406.153846	3711.794872	4385.641026	4610.769231	4632.820513	4523.076923	4024.615385	4105.128205	4517.435897	4437.435897	4268.205128	3951.282051	1738.000000	1677.000000	31.026000	0.000000	0.000000	0.000000	0.000000	1	1	0	0	0	0	0	0	0	0	0	0	0	0	0	0	0	0	0	1	0.000	0.000
79.000000	4356.410256	4387.692308	4407.179487	3712.820513	4385.128205	4611.282051	4631.282051	4522.564103	4024.615385	4102.564103	4516.923077	4436.923077	4267.179487	3951.282051	1736.000000	1678.000000	31.034000	0.000000	0.000000	0.000000	0.000000	1	1	0	0	0	0	0	0	0	0	0	0	0	0	0	0	0	0	0	1	0.000	0.000
80.000000	4355.384615	4387.692308	4409.743590	3713.846154	4386.153846	4610.769231	4631.282051	4521.538462	4024.102564	4103.076923	4516.923077	4436.410256	4268.205128	3952.307692	1737.000000	1678.000000	31.049000	0.000000	0.000000	0.000000	0.000000	1	1	0	0	0	0	0	0	0	0	0	0	0	0	0	0	0	0	0	1	0.000	0.000
81.000000	4355.384615	4385.128205	4408.205128	3712.820513	4383.589744	4609.743590	4630.256410	4522.564103	4024.102564	4104.102564	4516.923077	4437.948718	4268.205128	3952.820513	1737.000000	1678.000000	31.050000	0.000000	0.000000	0.000000	0.000000	1	1	0	0	0	0	0	0	0	0	0	0	0	0	0	0	0	0	0	1	0.000	0.000
82.000000	4357.435897	4385.641026	4405.128205	3712.820513	4382.564103	4610.769231	4631.794872	4523.076923	4023.589744	4103.589744	4517.435897	4435.384615	4268.205128	3951.282051	1737.000000	1679.000000	31.057000	0.000000	0.000000	0.000000	0.000000	1	1	0	0	0	0	0	0	0	0	0	0	0	0	0	0	0	0	0	1	0.000	0.000
83.000000	4355.384615	4388.205128	4408.205128	3715.384615	4383.589744	4611.282051	4632.307692	4521.025641	4022.051282	4104.615385	4520.000000	4435.897436	4268.717949	3951.282051	1737.000000	1678.000000	31.065000	0.000000	0.000000	0.000000	0.000000	1	1	0	0	0	0	0	0	0	0	0	0	0	0	0	0	0	0	0	1	0.000	0.000
84.000000	4355.384615	4388.717949	4409.230769	3712.820513	4384.615385	4612.307692	4631.794872	4522.564103	4023.076923	4102.564103	4518.974359	4433.846154	4265.641026	3952.820513	1737.000000	1678.000000	31.080000	0.000000	0.000000	0.000000	0.000000	1	1	0	0	0	0	0	0	0	0	0	0	0	0	0	0	0	0	0	1	0.000	0.000
85.000000	4355.384615	4387.692308	4407.179487	3708.717949	4386.153846	4613.333333	4630.769231	4522.564103	4025.641026	4101.538462	4517.435897	4436.923077	4266.153846	3953.333333	1737.000000	1678.000000	31.082000	0.000000	0.000000	0.000000	0.000000	1	1	0	0	0	0	0	0	0	0	0	0	0	0	0	0	0	0	0	1	0.000	0.000
86.000000	4355.897436	4388.717949	4407.179487	3710.256410	4387.179487	4614.871795	4630.256410	4520.512821	4025.128205	4103.589744	4516.410256	4436.410256	4267.692308	3952.820513	1736.000000	1678.000000	31.090000	0.000000	0.000000	0.000000	0.000000	1	1	0	0	0	0	0	0	0	0	0	0	0	0	0	0	0	0	0	1	0.000	0.000
87.000000	4356.923077	4388.205128	4407.692308	3712.820513	4384.102564	4612.307692	4630.769231	4521.025641	4022.564103	4104.102564	4517.948718	4435.897436	4265.128205	3952.307692	1737.000000	1678.000000	31.097000	0.000000	0.000000	0.000000	0.000000	1	1	0	0	0	0	0	0	0	0	0	0	0	0	0	0	0	0	0	1	0.000	0.000
88.000000	4356.923077	4385.128205	4407.179487	3712.307692	4382.564103	4610.256410	4632.820513	4523.589744	4024.615385	4103.076923	4518.974359	4437.435897	4264.102564	3950.769231	1737.000000	1678.000000	31.109000	0.000000	0.000000	0.000000	0.000000	1	1	0	0	0	0	0	0	0	0	0	0	0	0	0	0	0	0	0	1	0.000	0.000
89.000000	4355.897436	4383.589744	4407.179487	3709.743590	4384.615385	4612.307692	4632.307692	4523.076923	4025.128205	4103.076923	4518.461538	4438.974359	4266.153846	3951.282051	1737.000000	1677.000000	31.113000	0.000000	0.000000	0.000000	0.000000	1	1	0	0	0	0	0	0	0	0	0	0	0	0	0	0	0	0	0	1	0.000	0.000
90.000000	4356.410256	4386.153846	4407.692308	3711.794872	4385.641026	4613.846154	4629.230769	4524.102564	4023.076923	4104.102564	4517.948718	4435.384615	4266.666667	3951.282051	1736.000000	1678.000000	31.120000	0.000000	0.000000	0.000000	0.000000	1	1	0	0	0	0	0	0	0	0	0	0	0	0	0	0	0	0	0	1	0.000	0.000
91.000000	4354.871795	4387.692308	4407.692308	3716.410256	4384.615385	4613.333333	4630.256410	4524.102564	4023.589744	4104.102564	4518.461538	4434.358974	4265.641026	3950.256410	1738.000000	1678.000000	31.128000	0.000000	0.000000	0.000000	0.000000	1	1	0	0	0	0	0	0	0	0	0	0	0	0	0	0	0	0	0	1	0.000	0.000
92.000000	4352.307692	4386.666667	4408.205128	3716.410256	4384.615385	4612.820513	4631.794872	4522.051282	4023.589744	4103.589744	4518.974359	4437.948718	4264.615385	3950.256410	1737.000000	1678.000000	31.141000	0.000000	0.000000	0.000000	0.000000	1	1	0	0	0	0	0	0	0	0	0	0	0	0	0	0	0	0	0	1	0.000	0.000
93.000000	4354.871795	4386.666667	4405.641026	3711.282051	4384.615385	4612.307692	4630.256410	4521.025641	4022.564103	4105.641026	4516.410256	4434.871795	4265.128205	3950.769231	1738.000000	1678.000000	31.145000	0.000000	0.000000	0.000000	0.000000	1	1	0	0	0	0	0	0	0	0	0	0	0	0	0	0	0	0	0	1	0.000	0.000
94.000000	4355.897436	4389.230769	4404.615385	3710.256410	4385.128205	4612.307692	4630.769231	4520.000000	4023.589744	4104.615385	4516.410256	4432.820513	4267.692308	3950.769231	1737.000000	1677.000000	31.151000	0.000000	0.000000	0.000000	0.000000	1	1	0	0	0	0	0	0	0	0	0	0	0	0	0	0	0	0	0	1	0.000	0.000
95.000000	4354.358974	4387.692308	4406.153846	3713.846154	4384.615385	4613.333333	4633.333333	4522.051282	4024.102564	4101.538462	4516.410256	4434.358974	4268.717949	3952.307692	1737.000000	1679.000000	31.159000	0.000000	0.000000	0.000000	0.000000	1	1	0	0	0	0	0	0	0	0	0	0	0	0	0	0	0	0	0	1	0.000	0.000
96.000000	4355.384615	4386.153846	4409.743590	3712.820513	4382.564103	4613.333333	4631.794872	4524.102564	4022.051282	4101.538462	4516.410256	4436.923077	4266.666667	3955.384615	1737.000000	1678.000000	31.173000	0.000000	0.000000	0.000000	0.000000	1	1	0	0	0	0	0	0	0	0	0	0	0	0	0	0	0	0	0	1	0.000	0.000
97.000000	4356.410256	4386.153846	4409.230769	3710.769231	4383.076923	4612.820513	4630.769231	4523.076923	4023.589744	4103.076923	4517.435897	4433.333333	4262.564103	3952.820513	1737.000000	1678.000000	31.176000	0.000000	0.000000	0.000000	0.000000	1	1	0	0	0	0	0	0	0	0	0	0	0	0	0	0	0	0	0	1	0.000	0.000
98.000000	4355.897436	4385.641026	4408.205128	3713.333333	4384.102564	4613.333333	4631.794872	4522.051282	4025.128205	4101.538462	4518.974359	4435.384615	4261.538462	3952.307692	1737.000000	1678.000000	31.183000	0.000000	0.000000	0.000000	0.000000	1	1	0	0	0	0	0	0	0	0	0	0	0	0	0	0	0	0	0	1	0.000	0.000
99.000000	4356.410256	4385.128205	4406.666667	3713.846154	4384.615385	4614.358974	4631.282051	4524.102564	4022.564103	4104.102564	4517.948718	4435.897436	4263.076923	3952.820513	1737.000000	1678.000000	31.190000	0.000000	0.000000	0.000000	0.000000	1	1	0	0	0	0	0	0	0	0	0	0	0	0	0	0	0	0	0	1	0.000	0.000
100.000000	4355.384615	4385.128205	4407.692308	3711.794872	4383.076923	4613.846154	4631.794872	4522.564103	4023.076923	4105.641026	4518.974359	4435.897436	4268.205128	3953.333333	1737.000000	1678.000000	31.202000	0.000000	0.000000	0.000000	0.000000	1	1	0	0	0	0	0	0	0	0	0	0	0	0	0	0	0	0	0	1	0.000	0.000
101.000000	4356.410256	4386.153846	4408.717949	3710.769231	4382.564103	4613.846154	4635.384615	4520.000000	4025.128205	4102.564103	4518.461538	4433.333333	4270.256410	3953.333333	1737.000000	1678.000000	31.206000	0.000000	0.000000	0.000000	0.000000	1	1	0	0	0	0	0	0	0	0	0	0	0	0	0	0	0	0	0	1	0.000	0.000
102.000000	4356.410256	4386.153846	4408.205128	3711.794872	4381.538462	4614.871795	4633.846154	4518.974359	4024.615385	4102.564103	4516.923077	4434.871795	4268.205128	3954.358974	1737.000000	1678.000000	31.214000	0.000000	0.000000	0.000000	0.000000	1	1	0	0	0	0	0	0	0	0	0	0	0	0	0	0	0	0	0	1	0.000	0.000
103.000000	4354.358974	4385.641026	4405.128205	3712.820513	4383.076923	4613.846154	4630.769231	4521.025641	4022.564103	4102.051282	4517.435897	4434.871795	4268.205128	3951.794872	1738.000000	1679.000000	31.222000	0.000000	0.000000	0.000000	0.000000	1	1	0	0	0	0	0	0	0	0	0	0	0	0	0	0	0	0	0	1	0.000	0.000
104.000000	4354.871795	4385.641026	4406.153846	3713.846154	4384.102564	4611.794872	4629.230769	4522.564103	4023.076923	4100.000000	4520.000000	4435.897436	4270.256410	3950.769231	1737.000000	1678.000000	31.235000	0.000000	0.000000	0.000000	0.000000	1	1	0	0	0	0	0	0	0	0	0	0	0	0	0	0	0	0	0	1	0.000	0.000
105.000000	4356.923077	4385.641026	4408.205128	3713.333333	4384.615385	4613.333333	4630.256410	4521.025641	4023.589744	4101.025641	4519.487179	4438.461538	4267.179487	3952.307692	1737.000000	1679.000000	31.238000	0.000000	0.000000	0.000000	0.000000	1	1	0	0	0	0	0	0	0	0	0	0	0	0	0	0	0	0	0	1	0.000	0.000
106.000000	4354.358974	4386.153846	4406.666667	3712.820513	4384.615385	4614.871795	4629.743590	4521.025641	4023.076923	4103.076923	4518.974359	4441.025641	4264.102564	3952.820513	1736.000000	1678.000000	31.245000	0.000000	0.000000	0.000000	0.000000	1	1	0	0	0	0	0	0	0	0	0	0	0	0	0	0	0	0	0	1	0.000	0.000
107.000000	4354.358974	4386.666667	4407.179487	3712.820513	4383.589744	4613.846154	4628.717949	4523.076923	4022.564103	4103.076923	4518.974359	4438.974359	4267.692308	3951.794872	1736.000000	1678.000000	31.253000	0.000000	0.000000	0.000000	0.000000	1	1	0	0	0	0	0	0	0	0	0	0	0	0	0	0	0	0	0	1	0.000	0.000
108.000000	4356.923077	4385.641026	4407.692308	3711.794872	4382.564103	4611.794872	4629.743590	4523.076923	4023.589744	4102.051282	4516.410256	4435.897436	4269.230769	3951.282051	1738.000000	1677.000000	31.265000	0.000000	0.000000	0.000000	0.000000	1	1	0	0	0	0	0	0	0	0	0	0	0	0	0	0	0	0	0	1	0.000	0.000
109.000000	4354.358974	4385.641026	4406.153846	3712.820513	4383.076923	4612.820513	4631.794872	4522.564103	4023.589744	4102.051282	4514.358974	4439.487179	4267.692308	3953.333333	1736.000000	1679.000000	31.269000	0.000000	0.000000	0.000000	0.000000	1	1	0	0	0	0	0	0	0	0	0	0	0	0	0	0	0	0	0	1	0.000	0.000
110.000000	4352.307692	4388.205128	4406.666667	3713.846154	4383.076923	4611.794872	4631.794872	4523.076923	4023.076923	4104.615385	4516.923077	4439.487179	4267.179487	3954.358974	1738.000000	1679.000000	31.276000	0.000000	0.000000	0.000000	0.000000	1	1	0	0	0	0	0	0	0	0	0	0	0	0	0	0	0	0	0	1	0.000	0.000
