Counter	AF3	F7	F3	FC5	T7	P7	O1	O2	P8	T8	FC6	F4	F8	AF4	GyroX	GyroY	Timestamp	FUNC_ID	FUNC_VALUE	MARKER	SYNC_SIGNAL	CMS_Q	DRL_Q	AF3_Q	F7_Q	F3_Q	FC5_Q	T7_Q	P7_Q	O1_Q	O2_Q	P8_Q	T8_Q	FC6_Q	F4_Q	F8_Q	AF4_Q	Blink	LeftWink	RightWink	EyesOpen	LeftEyeLid	RightEyelid
116.000000	4424.102564	4606.666667	4445.641026	4216.410256	4575.384615	4589.230769	4554.358974	4285.128205	4015.384615	3869.230769	4240.512821	4194.358974	4493.846154	4497.435897	1721.000000	1690.000000	38.498000	0.000000	0.000000	0.000000	0.000000	1	1	0	0	0	0	0	0	0	0	0	0	0	0	0	0	0	0	0	1	0.000	0.000
117.000000	4417.948718	4606.666667	4441.025641	4211.282051	4576.923077	4588.717949	4555.897436	4284.102564	4013.846154	3869.743590	4241.538462	4190.769231	4494.358974	4496.923077	1720.000000	1691.000000	38.507000	0.000000	0.000000	0.000000	0.000000	1	1	0	0	0	0	0	0	0	0	0	0	0	0	0	0	0	0	0	1	0.000	0.000
118.000000	4417.948718	4609.230769	4446.153846	4215.897436	4576.410256	4588.205128	4551.282051	4283.076923	4015.384615	3870.256410	4242.051282	4194.871795	4496.923077	4498.974359	1721.000000	1690.000000	38.517000	0.000000	0.000000	0.000000	0.000000	1	1	0	0	0	0	0	0	0	0	0	0	0	0	0	0	0	0	0	1	0.000	0.000
119.000000	4418.974359	4604.102564	4442.051282	4217.435897	4575.384615	4589.230769	4555.384615	4285.128205	4016.923077	3869.743590	4241.538462	4190.256410	4494.871795	4498.461538	1721.000000	1690.000000	38.522000	0.000000	0.000000	0.000000	0.000000	1	1	0	0	0	0	0	0	0	0	0	0	0	0	0	0	0	0	0	1	0.000	0.000
120.000000	4422.564103	4606.666667	4445.128205	4214.871795	4575.897436	4590.769231	4557.948718	4284.102564	4016.923077	3868.205128	4243.076923	4192.820513	4495.384615	4497.435897	1721.000000	1691.000000	38.528000	0.000000	0.000000	0.000000	0.000000	1	1	0	0	0	0	0	0	0	0	0	0	0	0	0	0	0	0	0	1	0.000	0.000
121.000000	4420.000000	4608.205128	4442.564103	4212.820513	4579.487179	4593.333333	4558.461538	4284.102564	4016.410256	3868.717949	4241.538462	4191.282051	4496.923077	4495.897436	1721.000000	1690.000000	38.536000	0.000000	0.000000	0.000000	0.000000	1	1	0	0	0	0	0	0	0	0	0	0	0	0	0	0	0	0	0	1	0.000	0.000
122.000000	4421.025641	4608.717949	4445.641026	4214.358974	4578.461538	4591.794872	4553.333333	4286.666667	4016.923077	3869.743590	4237.948718	4190.256410	4497.948718	4496.923077	1721.000000	1691.000000	38.544000	0.000000	0.000000	0.000000	0.000000	1	1	0	0	0	0	0	0	0	0	0	0	0	0	0	0	0	0	0	1	0.000	0.000
123.000000	4421.025641	4603.589744	4445.128205	4211.794872	4574.871795	4588.717949	4556.923077	4287.179487	4016.410256	3869.743590	4241.025641	4191.282051	4496.410256	4496.923077	1720.000000	1690.000000	38.553000	0.000000	0.000000	0.000000	0.000000	1	1	0	0	0	0	0	0	0	0	0	0	0	0	0	0	0	0	0	1	0.000	0.000
124.000000	4420.512821	4605.641026	4445.641026	4214.871795	4576.410256	4588.205128	4560.000000	4283.589744	4017.435897	3869.743590	4243.589744	4192.307692	4494.871795	4498.461538	1721.000000	1691.000000	38.562000	0.000000	0.000000	0.000000	0.000000	1	1	0	0	0	0	0	0	0	0	0	0	0	0	0	0	0	0	0	1	0.000	0.000
125.000000	4420.000000	4609.743590	4447.692308	4221.025641	4578.461538	4588.717949	4553.333333	4282.051282	4017.435897	3869.230769	4240.512821	4193.333333	4495.384615	4498.461538	1721.000000	1689.000000	38.570000	0.000000	0.000000	0.000000	0.000000	1	1	0	0	0	0	0	0	0	0	0	0	0	0	0	0	0	0	0	1	0.000	0.000
126.000000	4419.487179	4609.230769	4443.076923	4216.923077	4575.897436	4589.743590	4551.282051	4286.153846	4015.897436	3868.717949	4241.025641	4191.794872	4496.923077	4496.410256	1720.000000	1691.000000	38.577000	0.000000	0.000000	0.000000	0.000000	1	1	0	0	0	0	0	0	0	0	0	0	0	0	0	0	0	0	0	1	0.000	0.000
127.000000	4422.051282	4607.692308	4446.666667	4210.256410	4576.410256	4591.282051	4553.846154	4286.153846	4015.384615	3869.230769	4245.641026	4195.897436	4495.897436	4497.948718	1722.000000	1690.000000	38.585000	0.000000	0.000000	0.000000	0.000000	1	1	0	0	0	0	0	0	0	0	0	0	0	0	0	0	0	0	0	1	0.000	0.000
128.000000	4421.538462	4603.589744	4443.589744	4210.769231	4580.000000	4592.307692	4556.923077	4284.102564	4015.897436	3869.743590	4243.589744	4191.282051	4494.358974	4498.461538	1720.000000	1691.000000	38.593000	0.000000	0.000000	0.000000	0.000000	1	1	0	0	0	0	0	0	0	0	0	0	0	0	0	0	0	0	0	1	0.000	0.000
0.000000	4423.076923	4606.153846	4446.666667	4216.410256	4576.923077	4588.205128	4552.307692	4284.102564	4016.923077	3869.743590	4241.538462	4194.358974	4494.871795	4497.948718	1722.000000	1690.000000	38.601000	0.000000	0.000000	0.000000	0.000000	1	1	0	0	0	0	0	0	0	0	0	0	0	0	0	0	0	0	0	1	0.000	0.000
1.000000	4420.000000	4605.128205	4440.000000	4212.820513	4575.384615	4588.717949	4556.923077	4287.692308	4017.435897	3871.282051	4243.076923	4194.871795	4495.897436	4497.435897	1721.000000	1690.000000	38.609000	0.000000	0.000000	0.000000	0.000000	1	1	0	0	0	0	0	0	0	0	0	0	0	0	0	0	0	0	0	1	0.000	0.000
2.000000	4423.076923	4608.717949	4444.102564	4213.333333	4578.461538	4589.743590	4554.871795	4284.615385	4014.358974	3870.256410	4244.615385	4194.871795	4495.384615	4500.512821	1721.000000	1691.000000	38.615000	0.000000	0.000000	0.000000	0.000000	1	1	0	0	0	0	0	0	0	0	0	0	0	0	0	0	0	0	0	1	0.000	0.000
3.000000	4420.000000	4604.615385	4441.538462	4214.358974	4578.461538	4590.256410	4557.435897	4283.589744	4013.333333	3868.205128	4242.564103	4189.230769	4494.358974	4497.435897	1721.000000	1690.000000	38.623000	0.000000	0.000000	0.000000	0.000000	1	1	0	0	0	0	0	0	0	0	0	0	0	0	0	0	0	0	0	1	0.000	0.000
4.000000	4422.051282	4607.179487	4447.692308	4215.384615	4574.871795	4590.256410	4553.846154	4283.076923	4016.923077	3869.230769	4240.512821	4195.897436	4496.410256	4496.410256	1721.000000	1691.000000	38.631000	0.000000	0.000000	0.000000	0.000000	1	1	0	0	0	0	0	0	0	0	0	0	0	0	0	0	0	0	0	1	0.000	0.000
5.000000	4420.512821	4607.692308	4442.051282	4214.871795	4576.410256	4591.794872	4556.410256	4284.615385	4018.974359	3871.282051	4241.538462	4191.282051	4495.384615	4498.974359	1720.000000	1691.000000	38.639000	0.000000	0.000000	0.000000	0.000000	1	1	0	0	0	0	0	0	0	0	0	0	0	0	0	0	0	0	0	1	0.000	0.000
6.000000	4422.051282	4611.794872	4445.128205	4217.435897	4576.923077	4592.307692	4553.333333	4282.564103	4015.897436	3869.230769	4242.564103	4190.769231	4493.846154	4501.025641	1720.000000	1691.000000	38.648000	0.000000	0.000000	0.000000	0.000000	1	1	0	0	0	0	0	0	0	0	0	0	0	0	0	0	0	0	0	1	0.000	0.000
7.000000	4420.000000	4608.205128	4443.589744	4214.871795	4575.384615	4591.794872	4554.871795	4285.128205	4014.871795	3869.230769	4241.538462	4189.743590	4495.384615	4497.435897	1721.000000	1690.000000	38.656000	0.000000	0.000000	0.000000	0.000000	1	1	0	0	0	0	0	0	0	0	0	0	0	0	0	0	0	0	0	1	0.000	0.000
8.000000	4420.512821	4605.128205	4446.666667	4213.846154	4575.897436	4591.282051	4555.897436	4284.615385	4016.410256	3869.743590	4241.538462	4192.820513	4496.923077	4495.384615	1721.000000	1691.000000	38.663000	0.000000	0.000000	0.000000	0.000000	1	1	0	0	0	0	0	0	0	0	0	0	0	0	0	0	0	0	0	1	0.000	0.000
9.000000	4420.000000	4602.051282	4443.076923	4214.358974	4575.897436	4592.820513	4557.948718	4283.076923	4016.410256	3868.205128	4242.051282	4190.769231	4495.384615	4496.410256	1721.000000	1690.000000	38.671000	0.000000	0.000000	0.000000	0.000000	1	1	0	0	0	0	0	0	0	0	0	0	0	0	0	0	0	0	0	1	0.000	0.000
10.000000	4421.538462	4606.153846	4443.589744	4214.871795	4576.923077	4592.820513	4554.358974	4285.128205	4015.897436	3868.717949	4241.538462	4191.794872	4494.871795	4498.461538	1720.000000	1691.000000	38.679000	0.000000	0.000000	0.000000	0.000000	1	1	0	0	0	0	0	0	0	0	0	0	0	0	0	0	0	0	0	1	0.000	0.000
11.000000	4419.487179	4608.205128	4444.615385	4213.846154	4576.923077	4590.256410	4551.794872	4284.615385	4016.923077	3868.717949	4243.076923	4191.794872	4493.846154	4497.435897	1722.000000	1691.000000	38.687000	0.000000	0.000000	0.000000	0.000000	1	1	0	0	0	0	0	0	0	0	0	0	0	0	0	0	0	0	0	1	0.000	0.000
12.000000	4418.974359	4607.692308	4445.128205	4215.384615	4576.410256	4590.769231	4553.333333	4285.128205	4018.461538	3867.692308	4242.564103	4188.717949	4494.871795	4497.435897	1721.000000	1690.000000	38.695000	0.000000	0.000000	0.000000	0.000000	1	1	0	0	0	0	0	0	0	0	0	0	0	0	0	0	0	0	0	1	0.000	0.000
13.000000	4422.051282	4606.153846	4445.128205	4215.384615	4575.897436	4590.256410	4554.358974	4286.666667	4017.435897	3869.230769	4242.051282	4193.333333	4497.435897	4499.487179	1721.000000	1692.000000	38.702000	0.000000	0.000000	0.000000	0.000000	1	1	0	0	0	0	0	0	0	0	0	0	0	0	0	0	0	0	0	1	0.000	0.000
14.000000	4422.564103	4606.666667	4441.538462	4215.897436	4577.435897	4589.230769	4556.410256	4288.205128	4015.897436	3870.256410	4241.025641	4192.307692	4495.384615	4498.461538	1721.000000	1690.000000	38.710000	0.000000	0.000000	0.000000	0.000000	1	1	0	0	0	0	0	0	0	0	0	0	0	0	0	0	0	0	0	1	0.000	0.000
15.000000	4424.102564	4609.743590	4448.717949	4217.948718	4576.923077	4588.717949	4555.897436	4284.102564	4015.897436	3868.717949	4240.512821	4193.846154	4493.846154	4497.948718	1721.000000	1691.000000	38.718000	0.000000	0.000000	0.000000	0.000000	1	1	0	0	0	0	0	0	0	0	0	0	0	0	0	0	0	0	0	1	0.000	0.000
16.000000	4420.000000	4606.666667	4444.102564	4216.923077	4575.897436	4588.717949	4557.435897	4284.102564	4016.410256	3867.692308	4240.512821	4189.743590	4493.333333	4497.948718	1721.000000	1690.000000	38.726000	0.000000	0.000000	0.000000	0.000000	1	1	0	0	0	0	0	0	0	0	0	0	0	0	0	0	0	0	0	1	0.000	0.000
17.000000	4421.025641	4607.179487	4446.666667	4214.358974	4576.410256	4588.717949	4553.846154	4285.641026	4015.897436	3869.230769	4242.564103	4192.820513	4492.307692	4496.923077	1721.000000	1691.000000	38.734000	0.000000	0.000000	0.000000	0.000000	1	1	0	0	0	0	0	0	0	0	0	0	0	0	0	0	0	0	0	1	0.000	0.000
18.000000	4419.487179	4605.641026	4443.076923	4211.282051	4576.410256	4591.282051	4556.410256	4285.641026	4015.384615	3870.256410	4241.538462	4188.717949	4492.820513	4495.384615	1721.000000	1690.000000	38.742000	0.000000	0.000000	0.000000	0.000000	1	1	0	0	0	0	0	0	0	0	0	0	0	0	0	0	0	0	0	1	0.000	0.000
19.000000	4422.564103	4609.743590	4449.743590	4214.358974	4576.410256	4590.769231	4552.307692	4284.615385	4013.846154	3869.230769	4242.051282	4194.871795	4497.948718	4500.000000	1720.000000	1691.000000	38.749000	0.000000	0.000000	0.000000	0.000000	1	1	0	0	0	0	0	0	0	0	0	0	0	0	0	0	0	0	0	1	0.000	0.000
20.000000	4421.025641	4605.641026	4441.538462	4213.333333	4575.897436	4590.769231	4554.358974	4285.128205	4015.897436	3867.692308	4243.076923	4191.794872	4495.384615	4500.000000	1722.000000	1690.000000	38.757000	0.000000	0.000000	0.000000	0.000000	1	1	0	0	0	0	0	0	0	0	0	0	0	0	0	0	0	0	0	1	0.000	0.000
21.000000	4424.615385	4607.692308	4445.641026	4215.384615	4575.897436	4591.282051	4551.282051	4284.615385	4018.461538	3867.179487	4243.076923	4191.794872	4492.307692	4500.512821	1721.000000	1691.000000	38.765000	0.000000	0.000000	0.000000	0.000000	1	1	0	0	0	0	0	0	0	0	0	0	0	0	0	0	0	0	0	1	0.000	0.000
22.000000	4422.051282	4607.179487	4444.615385	4216.923077	4576.410256	4590.256410	4556.410256	4287.692308	4017.435897	3868.205128	4242.051282	4189.230769	4495.384615	4499.487179	1722.000000	1691.000000	38.773000	0.000000	0.000000	0.000000	0.000000	1	1	0	0	0	0	0	0	0	0	0	0	0	0	0	0	0	0	0	1	0.000	0.000
23.000000	4423.589744	4609.230769	4449.743590	4219.487179	4575.897436	4588.205128	4552.820513	4286.666667	4014.871795	3869.743590	4241.538462	4193.846154	4497.435897	4499.487179	1721.000000	1690.000000	38.781000	0.000000	0.000000	0.000000	0.000000	1	1	0	0	0	0	0	0	0	0	0	0	0	0	0	0	0	0	0	1	0.000	0.000
24.000000	4422.051282	4607.179487	4443.589744	4215.897436	4575.897436	4589.230769	4554.358974	4287.179487	4014.871795	3869.743590	4242.051282	4190.769231	4494.358974	4498.461538	1721.000000	1692.000000	38.788000	0.000000	0.000000	0.000000	0.000000	1	1	0	0	0	0	0	0	0	0	0	0	0	0	0	0	0	0	0	1	0.000	0.000
25.000000	4418.974359	4609.743590	4443.076923	4215.384615	4575.897436	4590.769231	4554.871795	4285.641026	4015.897436	3868.717949	4242.051282	4192.820513	4493.846154	4497.948718	1721.000000	1690.000000	38.796000	0.000000	0.000000	0.000000	0.000000	1	1	0	0	0	0	0	0	0	0	0	0	0	0	0	0	0	0	0	1	0.000	0.000
26.000000	4419.487179	4606.666667	4444.102564	4214.871795	4575.897436	4591.282051	4554.871795	4282.564103	4015.384615	3869.230769	4243.589744	4193.846154	4495.897436	4498.974359	1720.000000	1691.000000	38.804000	0.000000	0.000000	0.000000	0.000000	1	1	0	0	0	0	0	0	0	0	0	0	0	0	0	0	0	0	0	1	0.000	0.000
27.000000	4421.025641	4604.615385	4446.153846	4213.846154	4576.923077	4592.307692	4553.846154	4282.051282	4017.435897	3870.256410	4242.564103	4191.794872	4499.487179	4500.512821	1721.000000	1691.000000	38.812000	0.000000	0.000000	0.000000	0.000000	1	1	0	0	0	0	0	0	0	0	0	0	0	0	0	0	0	0	0	1	0.000	0.000
28.000000	4420.000000	4607.179487	4443.589744	4213.333333	4576.923077	4593.846154	4555.384615	4283.589744	4016.923077	3868.205128	4242.051282	4190.769231	4497.435897	4497.948718	1721.000000	1691.000000	38.820000	0.000000	0.000000	0.000000	0.000000	1	1	0	0	0	0	0	0	0	0	0	0	0	0	0	0	0	0	0	1	0.000	0.000
29.000000	4420.512821	4609.230769	4439.487179	4215.384615	4576.410256	4593.333333	4558.461538	4285.128205	4015.384615	3868.717949	4243.076923	4191.794872	4494.871795	4495.897436	1721.000000	1691.000000	38.828000	0.000000	0.000000	0.000000	0.000000	1	1	0	0	0	0	0	0	0	0	0	0	0	0	0	0	0	0	0	1	0.000	0.000
30.000000	4421.538462	4607.179487	4444.615385	4215.897436	4575.897436	4589.743590	4555.897436	4282.051282	4015.384615	3869.743590	4244.102564	4196.410256	4495.897436	4499.487179	1721.000000	1691.000000	38.835000	0.000000	0.000000	0.000000	0.000000	1	1	0	0	0	0	0	0	0	0	0	0	0	0	0	0	0	0	0	1	0.000	0.000
31.000000	4417.948718	4604.102564	4444.102564	4212.307692	4575.384615	4590.256410	4555.384615	4285.128205	4014.358974	3869.230769	4241.538462	4191.282051	4497.435897	4502.051282	1721.000000	1690.000000	38.843000	0.000000	0.000000	0.000000	0.000000	1	1	0	0	0	0	0	0	0	0	0	0	0	0	0	0	0	0	0	1	0.000	0.000
32.000000	4419.487179	4606.666667	4447.692308	4212.307692	4575.384615	4590.769231	4552.820513	4285.641026	4012.307692	3869.230769	4240.512821	4192.820513	4494.358974	4500.512821	1721.000000	1691.000000	38.851000	0.000000	0.000000	0.000000	0.000000	1	1	0	0	0	0	0	0	0	0	0	0	0	0	0	0	0	0	0	1	0.000	0.000
33.000000	4420.512821	4606.666667	4438.974359	4212.820513	4574.871795	4589.743590	4556.923077	4284.615385	4014.871795	3869.743590	4240.512821	4189.230769	4493.846154	4498.974359	1721.000000	1691.000000	38.859000	0.000000	0.000000	0.000000	0.000000	1	1	0	0	0	0	0	0	0	0	0	0	0	0	0	0	0	0	0	1	0.000	0.000
34.000000	4424.102564	4608.205128	4446.153846	4213.846154	4574.358974	4588.717949	4554.358974	4282.564103	4018.461538	3870.256410	4239.487179	4194.358974	4496.410256	4498.461538	1721.000000	1690.000000	38.867000	0.000000	0.000000	0.000000	0.000000	1	1	0	0	0	0	0	0	0	0	0	0	0	0	0	0	0	0	0	1	0.000	0.000
35.000000	4420.000000	4604.615385	4443.076923	4212.307692	4576.410256	4590.769231	4554.871795	4285.128205	4017.435897	3869.743590	4237.435897	4191.794872	4494.871795	4495.384615	1721.000000	1690.000000	38.873000	0.000000	0.000000	0.000000	0.000000	1	1	0	0	0	0	0	0	0	0	0	0	0	0	0	0	0	0	0	1	0.000	0.000
36.000000	4420.512821	4608.205128	4446.153846	4217.435897	4576.923077	4590.256410	4552.307692	4284.615385	4016.410256	3868.717949	4240.512821	4193.333333	4494.871795	4495.384615	1721.000000	1691.000000	38.882000	0.000000	0.000000	0.000000	0.000000	1	1	0	0	0	0	0	0	0	0	0	0	0	0	0	0	0	0	0	1	0.000	0.000
37.000000	4418.461538	4606.153846	4439.487179	4215.384615	4575.897436	4590.256410	4554.358974	4284.102564	4017.435897	3869.743590	4243.589744	4188.717949	4495.384615	4495.384615	1721.000000	1690.000000	38.888000	0.000000	0.000000	0.000000	0.000000	1	1	0	0	0	0	0	0	0	0	0	0	0	0	0	0	0	0	0	1	0.000	0.000
38.000000	4424.102564	4609.743590	4446.666667	4214.358974	4574.871795	4589.230769	4551.282051	4283.589744	4016.410256	3869.230769	4243.076923	4193.846154	4496.923077	4500.000000	1721.000000	1691.000000	38.896000	0.000000	0.000000	0.000000	0.000000	1	1	0	0	0	0	0	0	0	0	0	0	0	0	0	0	0	0	0	1	0.000	0.000
39.000000	4422.051282	4608.205128	4444.102564	4215.384615	4576.410256	4588.205128	4556.410256	4284.102564	4015.897436	3868.205128	4241.538462	4193.333333	4496.923077	4499.487179	1722.000000	1690.000000	38.904000	0.000000	0.000000	0.000000	0.000000	1	1	0	0	0	0	0	0	0	0	0	0	0	0	0	0	0	0	0	1	0.000	0.000
40.000000	4422.051282	4610.769231	4444.615385	4216.410256	4575.897436	4589.230769	4553.846154	4283.076923	4015.384615	3868.717949	4242.051282	4191.794872	4493.846154	4497.948718	1720.000000	1691.000000	38.914000	0.000000	0.000000	0.000000	0.000000	1	1	0	0	0	0	0	0	0	0	0	0	0	0	0	0	0	0	0	1	0.000	0.000
41.000000	4421.538462	4608.205128	4443.076923	4212.307692	4575.897436	4591.282051	4552.820513	4285.128205	4016.923077	3869.743590	4242.051282	4190.256410	4492.307692	4497.948718	1721.000000	1691.000000	38.921000	0.000000	0.000000	0.000000	0.000000	1	1	0	0	0	0	0	0	0	0	0	0	0	0	0	0	0	0	0	1	0.000	0.000
42.000000	4422.564103	4607.692308	4445.128205	4213.333333	4575.897436	4590.256410	4552.820513	4285.641026	4020.000000	3869.230769	4242.051282	4194.358974	4494.871795	4500.512821	1720.000000	1690.000000	38.928000	0.000000	0.000000	0.000000	0.000000	1	1	0	0	0	0	0	0	0	0	0	0	0	0	0	0	0	0	0	1	0.000	0.000
43.000000	4422.051282	4607.692308	4443.589744	4216.410256	4572.820513	4588.205128	4555.384615	4285.641026	4017.948718	3869.230769	4242.051282	4192.820513	4495.897436	4499.487179	1721.000000	1692.000000	38.937000	0.000000	0.000000	0.000000	0.000000	1	1	0	0	0	0	0	0	0	0	0	0	0	0	0	0	0	0	0	1	0.000	0.000
44.000000	4421.025641	4608.205128	4442.051282	4216.923077	4573.333333	4590.769231	4554.871795	4286.153846	4016.410256	3868.717949	4241.025641	4190.769231	4494.358974	4498.974359	1721.000000	1690.000000	38.945000	0.000000	0.000000	0.000000	0.000000	1	1	0	0	0	0	0	0	0	0	0	0	0	0	0	0	0	0	0	1	0.000	0.000
45.000000	4421.538462	4608.205128	4445.128205	4215.897436	4576.923077	4592.307692	4552.307692	4283.076923	4017.948718	3869.230769	4242.051282	4193.333333	4494.358974	4498.974359	1720.000000	1691.000000	38.953000	0.000000	0.000000	0.000000	0.000000	1	1	0	0	0	0	0	0	0	0	0	0	0	0	0	0	0	0	0	1	0.000	0.000
46.000000	4420.000000	4606.666667	4444.615385	4213.846154	4579.487179	4588.717949	4554.871795	4284.102564	4018.974359	3870.256410	4242.051282	4192.820513	4494.358974	4497.948718	1721.000000	1690.000000	38.960000	0.000000	0.000000	0.000000	0.000000	1	1	0	0	0	0	0	0	0	0	0	0	0	0	0	0	0	0	0	1	0.000	0.000
47.000000	4423.076923	4607.692308	4446.666667	4215.384615	4576.923077	4586.153846	4551.282051	4284.615385	4015.897436	3870.769231	4241.538462	4195.384615	4492.820513	4499.487179	1721.000000	1691.000000	38.968000	0.000000	0.000000	0.000000	0.000000	1	1	0	0	0	0	0	0	0	0	0	0	0	0	0	0	0	0	0	1	0.000	0.000
48.000000	4421.538462	4607.179487	4443.076923	4216.410256	4574.358974	4590.256410	4552.307692	4283.589744	4014.358974	3869.230769	4242.051282	4192.307692	4495.384615	4500.512821	1721.000000	1690.000000	38.976000	0.000000	0.000000	0.000000	0.000000	1	1	0	0	0	0	0	0	0	0	0	0	0	0	0	0	0	0	0	1	0.000	0.000
49.000000	4421.025641	4608.205128	4447.179487	4216.410256	4576.410256	4592.307692	4555.384615	4281.025641	4015.384615	3867.692308	4243.589744	4193.846154	4498.461538	4498.461538	1720.000000	1691.000000	38.984000	0.000000	0.000000	0.000000	0.000000	1	1	0	0	0	0	0	0	0	0	0	0	0	0	0	0	0	0	0	1	0.000	0.000
50.000000	4418.974359	4605.128205	4440.512821	4216.410256	4578.461538	4590.769231	4560.000000	4285.128205	4015.384615	3868.717949	4244.102564	4189.230769	4495.897436	4497.435897	1722.000000	1691.000000	38.992000	0.000000	0.000000	0.000000	0.000000	1	1	0	0	0	0	0	0	0	0	0	0	0	0	0	0	0	0	0	1	0.000	0.000
51.000000	4421.025641	4608.205128	4447.179487	4220.000000	4577.948718	4589.743590	4552.820513	4285.128205	4014.358974	3871.282051	4243.589744	4194.871795	4492.820513	4499.487179	1720.000000	1691.000000	38.999000	0.000000	0.000000	0.000000	0.000000	1	1	0	0	0	0	0	0	0	0	0	0	0	0	0	0	0	0	0	1	0.000	0.000
52.000000	4419.487179	4606.153846	4443.589744	4215.384615	4577.435897	4590.769231	4555.384615	4283.589744	4015.897436	3871.282051	4242.051282	4190.769231	4494.358974	4497.435897	1721.000000	1691.000000	39.006000	0.000000	0.000000	0.000000	0.000000	1	1	0	0	0	0	0	0	0	0	0	0	0	0	0	0	0	0	0	1	0.000	0.000
53.000000	4423.076923	4607.179487	4448.205128	4214.358974	4576.410256	4589.230769	4555.897436	4284.102564	4016.923077	3869.230769	4242.564103	4194.871795	4497.948718	4496.923077	1720.000000	1690.000000	39.015000	0.000000	0.000000	0.000000	0.000000	1	1	0	0	0	0	0	0	0	0	0	0	0	0	0	0	0	0	0	1	0.000	0.000
54.000000	4418.974359	4604.102564	4443.076923	4214.358974	4575.384615	4589.743590	4555.897436	4286.666667	4015.897436	3869.230769	4242.051282	4193.846154	4496.923077	4497.435897	1721.000000	1691.000000	39.023000	0.000000	0.000000	0.000000	0.000000	1	1	0	0	0	0	0	0	0	0	0	0	0	0	0	0	0	0	0	1	0.000	0.000
55.000000	4421.538462	4607.692308	4447.692308	4214.871795	4576.923077	4589.743590	4551.282051	4284.615385	4015.897436	3868.717949	4241.538462	4192.307692	4495.384615	4500.000000	1722.000000	1689.000000	39.030000	0.000000	0.000000	0.000000	0.000000	1	1	0	0	0	0	0	0	0	0	0	0	0	0	0	0	0	0	0	1	0.000	0.000
56.000000	4423.589744	4606.153846	4444.102564	4213.846154	4575.384615	4590.256410	4554.358974	4282.051282	4016.923077	3868.717949	4242.051282	4188.717949	4493.333333	4498.974359	1720.000000	1691.000000	39.037000	0.000000	0.000000	0.000000	0.000000	1	1	0	0	0	0	0	0	0	0	0	0	0	0	0	0	0	0	0	1	0.000	0.000
57.000000	4424.102564	4607.692308	4444.615385	4216.923077	4572.820513	4590.769231	4552.820513	4283.589744	4015.384615	3868.717949	4242.564103	4193.333333	4494.871795	4500.000000	1721.000000	1691.000000	39.044000	0.000000	0.000000	0.000000	0.000000	1	1	0	0	0	0	0	0	0	0	0	0	0	0	0	0	0	0	0	1	0.000	0.000
58.000000	4420.000000	4605.641026	4443.589744	4214.358974	4575.384615	4591.282051	4555.384615	4286.666667	4014.871795	3868.717949	4241.538462	4192.820513	4497.435897	4499.487179	1721.000000	1691.000000	39.052000	0.000000	0.000000	0.000000	0.000000	1	1	0	0	0	0	0	0	0	0	0	0	0	0	0	0	0	0	0	1	0.000	0.000
59.000000	4421.025641	4609.230769	4445.128205	4213.333333	4577.948718	4590.769231	4554.358974	4285.128205	4016.923077	3867.179487	4241.025641	4190.256410	4496.410256	4499.487179	1721.000000	1691.000000	39.060000	0.000000	0.000000	0.000000	0.000000	1	1	0	0	0	0	0	0	0	0	0	0	0	0	0	0	0	0	0	1	0.000	0.000
60.000000	4423.076923	4610.256410	4447.179487	4216.410256	4577.948718	4589.230769	4554.871795	4285.128205	4017.435897	3867.179487	4241.538462	4192.307692	4494.871795	4500.000000	1720.000000	1691.000000	39.070000	0.000000	0.000000	0.000000	0.000000	1	1	0	0	0	0	0	0	0	0	0	0	0	0	0	0	0	0	0	1	0.000	0.000
61.000000	4422.564103	4606.153846	4445.128205	4216.923077	4578.461538	4589.743590	4556.923077	4286.666667	4015.384615	3869.230769	4240.512821	4192.820513	4496.410256	4499.487179	1721.000000	1690.000000	39.078000	0.000000	0.000000	0.000000	0.000000	1	1	0	0	0	0	0	0	0	0	0	0	0	0	0	0	0	0	0	1	0.000	0.000
62.000000	4423.076923	4606.666667	4444.615385	4216.410256	4575.384615	4590.256410	4552.820513	4284.102564	4014.871795	3868.717949	4241.538462	4193.333333	4496.410256	4497.948718	1720.000000	1691.000000	39.086000	0.000000	0.000000	0.000000	0.000000	1	1	0	0	0	0	0	0	0	0	0	0	0	0	0	0	0	0	0	1	0.000	0.000
63.000000	4420.000000	4606.153846	4443.076923	4216.923077	4573.846154	4590.769231	4554.871795	4284.615385	4016.923077	3867.692308	4242.564103	4190.769231	4493.846154	4497.948718	1721.000000	1691.000000	39.093000	0.000000	0.000000	0.000000	0.000000	1	1	0	0	0	0	0	0	0	0	0	0	0	0	0	0	0	0	0	1	0.000	0.000
64.000000	4422.051282	4607.692308	4450.769231	4216.923077	4575.897436	4587.692308	4552.820513	4284.102564	4017.948718	3868.205128	4242.564103	4193.333333	4494.871795	4500.512821	1721.000000	1690.000000	39.100000	0.000000	0.000000	0.000000	0.000000	1	1	0	0	0	0	0	0	0	0	0	0	0	0	0	0	0	0	0	1	0.000	0.000
65.000000	4420.512821	4606.666667	4445.128205	4216.923077	4576.923077	4589.230769	4552.307692	4285.128205	4016.923077	3871.282051	4241.025641	4190.256410	4496.410256	4498.974359	1721.000000	1691.000000	39.108000	0.000000	0.000000	0.000000	0.000000	1	1	0	0	0	0	0	0	0	0	0	0	0	0	0	0	0	0	0	1	0.000	0.000
66.000000	4421.025641	4610.769231	4447.179487	4216.923077	4575.384615	4592.307692	4551.794872	4282.564103	4016.410256	3871.794872	4242.051282	4194.358974	4495.897436	4497.948718	1722.000000	1690.000000	39.116000	0.000000	0.000000	0.000000	0.000000	1	1	0	0	0	0	0	0	0	0	0	0	0	0	0	0	0	0	0	1	0.000	0.000
67.000000	4419.487179	4609.230769	4443.589744	4213.333333	4575.897436	4591.282051	4557.948718	4284.615385	4016.923077	3869.743590	4243.076923	4189.743590	4493.333333	4497.948718	1720.000000	1692.000000	39.124000	0.000000	0.000000	0.000000	0.000000	1	1	0	0	0	0	0	0	0	0	0	0	0	0	0	0	0	0	0	1	0.000	0.000
68.000000	4423.076923	4610.256410	4448.205128	4216.410256	4575.897436	4589.230769	4551.794872	4284.615385	4015.897436	3869.230769	4242.051282	4191.282051	4494.871795	4499.487179	1722.000000	1691.000000	39.132000	0.000000	0.000000	0.000000	0.000000	1	1	0	0	0	0	0	0	0	0	0	0	0	0	0	0	0	0	0	1	0.000	0.000
69.000000	4420.000000	4605.641026	4441.538462	4216.410256	4575.384615	4590.256410	4554.871795	4286.153846	4016.410256	3870.769231	4241.538462	4187.179487	4495.897436	4498.974359	1720.000000	1691.000000	39.139000	0.000000	0.000000	0.000000	0.000000	1	1	0	0	0	0	0	0	0	0	0	0	0	0	0	0	0	0	0	1	0.000	0.000
70.000000	4421.025641	4608.205128	4446.666667	4215.897436	4575.897436	4590.256410	4553.846154	4283.076923	4015.897436	3870.769231	4241.538462	4195.897436	4495.897436	4499.487179	1721.000000	1691.000000	39.147000	0.000000	0.000000	0.000000	0.000000	1	1	0	0	0	0	0	0	0	0	0	0	0	0	0	0	0	0	0	1	0.000	0.000
71.000000	4419.487179	4606.153846	4440.512821	4213.333333	4575.384615	4590.769231	4554.358974	4283.076923	4015.897436	3869.743590	4241.025641	4193.333333	4494.871795	4499.487179	1721.000000	1690.000000	39.156000	0.000000	0.000000	0.000000	0.000000	1	1	0	0	0	0	0	0	0	0	0	0	0	0	0	0	0	0	0	1	0.000	0.000
72.000000	4422.564103	4607.179487	4443.589744	4215.384615	4575.384615	4592.820513	4555.384615	4284.615385	4016.923077	3868.717949	4242.051282	4192.307692	4495.897436	4500.000000	1721.000000	1690.000000	39.164000	0.000000	0.000000	0.000000	0.000000	1	1	0	0	0	0	0	0	0	0	0	0	0	0	0	0	0	0	0	1	0.000	0.000
73.000000	4422.564103	4604.615385	4442.051282	4212.820513	4576.923077	4591.794872	4557.948718	4285.641026	4017.435897	3866.666667	4243.076923	4191.282051	4496.410256	4496.923077	1720.000000	1690.000000	39.172000	0.000000	0.000000	0.000000	0.000000	1	1	0	0	0	0	0	0	0	0	0	0	0	0	0	0	0	0	0	1	0.000	0.000
74.000000	4423.589744	4608.205128	4444.102564	4213.846154	4576.923077	4589.743590	4551.794872	4285.641026	4016.923077	3867.692308	4242.564103	4194.358974	4498.974359	4497.948718	1721.000000	1692.000000	39.179000	0.000000	0.000000	0.000000	0.000000	1	1	0	0	0	0	0	0	0	0	0	0	0	0	0	0	0	0	0	1	0.000	0.000
75.000000	4420.512821	4607.692308	4444.615385	4215.384615	4574.358974	4590.769231	4554.358974	4284.102564	4015.384615	3869.743590	4242.051282	4193.333333	4497.435897	4501.025641	1721.000000	1690.000000	39.187000	0.000000	0.000000	0.000000	0.000000	1	1	0	0	0	0	0	0	0	0	0	0	0	0	0	0	0	0	0	1	0.000	0.000
76.000000	4418.974359	4608.717949	4444.102564	4214.871795	4574.358974	4591.282051	4556.410256	4282.051282	4015.897436	3870.256410	4240.512821	4191.282051	4495.384615	4502.564103	1721.000000	1691.000000	39.195000	0.000000	0.000000	0.000000	0.000000	1	1	0	0	0	0	0	0	0	0	0	0	0	0	0	0	0	0	0	1	0.000	0.000
77.000000	4420.000000	4609.743590	4445.128205	4214.358974	4574.871795	4589.230769	4551.794872	4281.538462	4016.410256	3869.230769	4240.512821	4193.333333	4497.435897	4498.974359	1722.000000	1690.000000	39.203000	0.000000	0.000000	0.000000	0.000000	1	1	0	0	0	0	0	0	0	0	0	0	0	0	0	0	0	0	0	1	0.000	0.000
78.000000	4420.000000	4607.692308	4444.615385	4214.871795	4574.358974	4590.256410	4552.820513	4285.128205	4016.923077	3869.230769	4241.025641	4191.282051	4500.512821	4496.410256	1720.000000	1691.000000	39.211000	0.000000	0.000000	0.000000	0.000000	1	1	0	0	0	0	0	0	0	0	0	0	0	0	0	0	0	0	0	1	0.000	0.000
79.000000	4424.102564	4609.230769	4449.743590	4216.923077	4573.846154	4590.769231	4554.358974	4286.666667	4015.897436	3868.717949	4242.564103	4192.820513	4498.461538	4500.512821	1721.000000	1692.000000	39.219000	0.000000	0.000000	0.000000	0.000000	1	1	0	0	0	0	0	0	0	0	0	0	0	0	0	0	0	0	0	1	0.000	0.000
80.000000	4422.051282	4608.205128	4443.589744	4214.871795	4576.923077	4589.743590	4555.897436	4287.179487	4015.897436	3867.692308	4242.051282	4190.256410	4493.846154	4501.025641	1720.000000	1691.000000	39.226000	0.000000	0.000000	0.000000	0.000000	1	1	0	0	0	0	0	0	0	0	0	0	0	0	0	0	0	0	0	1	0.000	0.000
81.000000	4421.025641	4609.743590	4444.615385	4215.384615	4577.948718	4589.743590	4553.846154	4284.615385	4016.410256	3867.179487	4241.025641	4194.358974	4495.384615	4496.410256	1720.000000	1691.000000	39.234000	0.000000	0.000000	0.000000	0.000000	1	1	0	0	0	0	0	0	0	0	0	0	0	0	0	0	0	0	0	1	0.000	0.000
82.000000	4418.974359	4606.666667	4442.051282	4214.358974	4575.897436	4592.307692	4558.974359	4285.641026	4017.435897	3868.717949	4242.051282	4191.794872	4496.410256	4494.871795	1721.000000	1691.000000	39.242000	0.000000	0.000000	0.000000	0.000000	1	1	0	0	0	0	0	0	0	0	0	0	0	0	0	0	0	0	0	1	0.000	0.000
83.000000	4425.128205	4609.743590	4451.282051	4216.410256	4575.384615	4589.743590	4553.333333	4284.102564	4016.410256	3869.743590	4242.564103	4193.333333	4494.358974	4499.487179	1721.000000	1691.000000	39.250000	0.000000	0.000000	0.000000	0.000000	1	1	0	0	0	0	0	0	0	0	0	0	0	0	0	0	0	0	0	1	0.000	0.000
84.000000	4419.487179	4609.230769	4444.615385	4215.897436	4576.410256	4588.717949	4556.410256	4286.153846	4016.410256	3868.717949	4240.000000	4189.230769	4493.846154	4498.974359	1721.000000	1691.000000	39.258000	0.000000	0.000000	0.000000	0.000000	1	1	0	0	0	0	0	0	0	0	0	0	0	0	0	0	0	0	0	1	0.000	0.000
85.000000	4417.948718	4611.282051	4447.179487	4217.435897	4575.897436	4590.769231	4554.358974	4284.615385	4017.435897	3868.717949	4238.974359	4193.846154	4495.897436	4498.461538	1721.000000	1691.000000	39.265000	0.000000	0.000000	0.000000	0.000000	1	1	0	0	0	0	0	0	0	0	0	0	0	0	0	0	0	0	0	1	0.000	0.000
86.000000	4418.461538	4607.692308	4444.615385	4215.384615	4575.384615	4591.794872	4555.897436	4285.128205	4015.897436	3870.769231	4241.025641	4191.794872	4493.846154	4498.461538	1721.000000	1690.000000	39.272000	0.000000	0.000000	0.000000	0.000000	1	1	0	0	0	0	0	0	0	0	0	0	0	0	0	0	0	0	0	1	0.000	0.000
87.000000	4422.051282	4609.743590	4446.666667	4214.358974	4576.410256	4589.230769	4552.820513	4284.102564	4013.333333	3870.256410	4243.076923	4193.333333	4492.307692	4500.000000	1721.000000	1691.000000	39.280000	0.000000	0.000000	0.000000	0.000000	1	1	0	0	0	0	0	0	0	0	0	0	0	0	0	0	0	0	0	1	0.000	0.000
88.000000	4421.538462	4607.692308	4438.974359	4212.307692	4576.410256	4589.743590	4553.846154	4285.128205	4013.846154	3868.717949	4243.076923	4188.717949	4493.333333	4497.435897	1720.000000	1691.000000	39.288000	0.000000	0.000000	0.000000	0.000000	1	1	0	0	0	0	0	0	0	0	0	0	0	0	0	0	0	0	0	1	0.000	0.000
89.000000	4423.076923	4607.692308	4442.564103	4214.871795	4574.871795	4591.282051	4552.307692	4285.128205	4016.410256	3868.717949	4242.051282	4193.333333	4495.384615	4495.384615	1721.000000	1691.000000	39.296000	0.000000	0.000000	0.000000	0.000000	1	1	0	0	0	0	0	0	0	0	0	0	0	0	0	0	0	0	0	1	0.000	0.000
90.000000	4420.512821	4607.692308	4442.564103	4215.384615	4574.871795	4590.769231	4555.897436	4284.615385	4015.384615	3869.743590	4241.025641	4194.871795	4494.871795	4497.435897	1720.000000	1691.000000	39.305000	0.000000	0.000000	0.000000	0.000000	1	1	0	0	0	0	0	0	0	0	0	0	0	0	0	0	0	0	0	1	0.000	0.000
91.000000	4421.025641	4610.256410	4444.102564	4214.871795	4575.384615	4589.743590	4554.871795	4284.615385	4013.333333	3869.743590	4241.538462	4191.794872	4494.871795	4502.564103	1721.000000	1691.000000	39.312000	0.000000	0.000000	0.000000	0.000000	1	1	0	0	0	0	0	0	0	0	0	0	0	0	0	0	0	0	0	1	0.000	0.000
92.000000	4422.564103	4607.692308	4445.641026	4213.846154	4574.871795	4590.256410	4553.846154	4283.589744	4015.384615	3868.717949	4241.025641	4191.282051	4495.897436	4500.512821	1721.000000	1690.000000	39.320000	0.000000	0.000000	0.000000	0.000000	1	1	0	0	0	0	0	0	0	0	0	0	0	0	0	0	0	0	0	1	0.000	0.000
93.000000	4424.102564	4608.717949	4445.641026	4212.307692	4574.871795	4590.769231	4554.358974	4284.615385	4017.435897	3868.205128	4237.435897	4194.871795	4496.410256	4498.461538	1721.000000	1692.000000	39.328000	0.000000	0.000000	0.000000	0.000000	1	1	0	0	0	0	0	0	0	0	0	0	0	0	0	0	0	0	0	1	0.000	0.000
94.000000	4424.615385	4609.743590	4448.717949	4211.794872	4576.410256	4588.205128	4553.846154	4284.102564	4016.923077	3869.743590	4238.974359	4195.897436	4495.384615	4499.487179	1721.000000	1690.000000	39.336000	0.000000	0.000000	0.000000	0.000000	1	1	0	0	0	0	0	0	0	0	0	0	0	0	0	0	0	0	0	1	0.000	0.000
95.000000	4421.025641	4605.641026	4444.102564	4214.871795	4576.923077	4589.230769	4553.846154	4283.589744	4016.410256	3870.769231	4243.076923	4190.769231	4495.897436	4497.948718	1721.000000	1692.000000	39.344000	0.000000	0.000000	0.000000	0.000000	1	1	0	0	0	0	0	0	0	0	0	0	0	0	0	0	0	0	0	1	0.000	0.000
96.000000	4420.512821	4607.692308	4446.153846	4218.461538	4576.410256	4592.307692	4552.820513	4284.102564	4017.435897	3867.179487	4243.076923	4195.384615	4495.384615	4497.435897	1722.000000	1689.000000	39.351000	0.000000	0.000000	0.000000	0.000000	1	1	0	0	0	0	0	0	0	0	0	0	0	0	0	0	0	0	0	1	0.000	0.000
97.000000	4420.000000	4607.179487	4442.564103	4214.871795	4577.948718	4593.333333	4556.410256	4287.179487	4016.410256	3868.205128	4240.000000	4191.794872	4492.307692	4497.948718	1719.000000	1691.000000	39.359000	0.000000	0.000000	0.000000	0.000000	1	1	0	0	0	0	0	0	0	0	0	0	0	0	0	0	0	0	0	1	0.000	0.000
98.000000	4424.102564	4607.692308	4449.230769	4213.846154	4576.410256	4590.769231	4552.820513	4286.153846	4014.871795	3870.769231	4240.000000	4195.384615	4494.358974	4498.974359	1721.000000	1691.000000	39.367000	0.000000	0.000000	0.000000	0.000000	1	1	0	0	0	0	0	0	0	0	0	0	0	0	0	0	0	0	0	1	0.000	0.000
99.000000	4421.025641	4606.153846	4441.025641	4211.794872	4574.871795	4590.256410	4555.897436	4285.128205	4017.435897	3869.743590	4240.000000	4191.282051	4495.384615	4497.435897	1720.000000	1690.000000	39.375000	0.000000	0.000000	0.000000	0.000000	1	1	0	0	0	0	0	0	0	0	0	0	0	0	0	0	0	0	0	1	0.000	0.000
100.000000	4423.076923	4611.794872	4443.076923	4214.871795	4575.384615	4589.230769	4555.897436	4284.615385	4018.461538	3868.717949	4242.564103	4192.820513	4495.384615	4498.974359	1721.000000	1690.000000	39.383000	0.000000	0.000000	0.000000	0.000000	1	1	0	0	0	0	0	0	0	0	0	0	0	0	0	0	0	0	0	1	0.000	0.000
101.000000	4419.487179	4606.666667	4442.051282	4214.358974	4575.384615	4589.743590	4558.974359	4286.666667	4016.923077	3870.256410	4243.076923	4189.743590	4494.871795	4498.461538	1720.000000	1690.000000	39.391000	0.000000	0.000000	0.000000	0.000000	1	1	0	0	0	0	0	0	0	0	0	0	0	0	0	0	0	0	0	1	0.000	0.000
102.000000	4421.025641	4607.692308	4448.205128	4215.384615	4575.384615	4589.230769	4550.256410	4284.615385	4014.358974	3870.256410	4241.538462	4193.846154	4494.358974	4497.948718	1721.000000	1690.000000	39.398000	0.000000	0.000000	0.000000	0.000000	1	1	0	0	0	0	0	0	0	0	0	0	0	0	0	0	0	0	0	1	0.000	0.000
103.000000	4420.512821	4607.179487	4443.589744	4213.333333	4577.948718	4589.230769	4554.871795	4285.641026	4015.384615	3870.256410	4241.538462	4189.743590	4492.820513	4497.435897	1721.000000	1691.000000	39.405000	0.000000	0.000000	0.000000	0.000000	1	1	0	0	0	0	0	0	0	0	0	0	0	0	0	0	0	0	0	1	0.000	0.000
104.000000	4421.538462	4608.205128	4446.666667	4214.871795	4578.461538	4589.230769	4556.410256	4284.615385	4016.410256	3869.743590	4244.102564	4191.282051	4495.384615	4497.948718	1721.000000	1690.000000	39.414000	0.000000	0.000000	0.000000	0.000000	1	1	0	0	0	0	0	0	0	0	0	0	0	0	0	0	0	0	0	1	0.000	0.000
105.000000	4418.461538	4605.128205	4441.538462	4216.410256	4576.923077	4589.743590	4555.384615	4285.641026	4013.846154	3869.230769	4242.051282	4190.256410	4497.435897	4494.871795	1721.000000	1690.000000	39.421000	0.000000	0.000000	0.000000	0.000000	1	1	0	0	0	0	0	0	0	0	0	0	0	0	0	0	0	0	0	1	0.000	0.000
106.000000	4419.487179	4608.205128	4442.564103	4217.948718	4575.897436	4591.794872	4553.333333	4286.153846	4013.846154	3868.717949	4240.512821	4191.794872	4496.410256	4495.897436	1720.000000	1692.000000	39.428000	0.000000	0.000000	0.000000	0.000000	1	1	0	0	0	0	0	0	0	0	0	0	0	0	0	0	0	0	0	1	0.000	0.000
107.000000	4421.025641	4608.205128	4444.102564	4214.358974	4575.897436	4593.333333	4554.358974	4284.102564	4016.923077	3868.205128	4243.589744	4189.743590	4494.871795	4498.461538	1721.000000	1690.000000	39.436000	0.000000	0.000000	0.000000	0.000000	1	1	0	0	0	0	0	0	0	0	0	0	0	0	0	0	0	0	0	1	0.000	0.000
108.000000	4421.025641	4608.205128	4445.128205	4214.871795	4576.410256	4592.307692	4553.333333	4283.076923	4016.923077	3868.717949	4243.589744	4189.743590	4495.897436	4498.974359	1720.000000	1691.000000	39.443000	0.000000	0.000000	0.000000	0.000000	1	1	0	0	0	0	0	0	0	0	0	0	0	0	0	0	0	0	0	1	0.000	0.000
109.000000	4421.025641	4608.717949	4443.076923	4217.948718	4575.384615	4590.256410	4554.871795	4283.076923	4013.333333	3869.230769	4240.512821	4194.358974	4496.410256	4497.435897	1721.000000	1691.000000	39.453000	0.000000	0.000000	0.000000	0.000000	1	1	0	0	0	0	0	0	0	0	0	0	0	0	0	0	0	0	0	1	0.000	0.000
110.000000	4420.512821	4606.666667	4442.564103	4216.923077	4573.333333	4591.794872	4558.461538	4284.615385	4015.897436	3868.717949	4240.512821	4194.358974	4495.897436	4495.897436	1720.000000	1690.000000	39.460000	0.000000	0.000000	0.000000	0.000000	1	1	0	0	0	0	0	0	0	0	0	0	0	0	0	0	0	0	0	1	0.000	0.000
111.000000	4423.076923	4606.153846	4447.179487	4214.358974	4572.820513	4592.307692	4556.410256	4282.051282	4018.974359	3869.230769	4242.564103	4194.871795	4496.410256	4497.435897	1721.000000	1691.000000	39.469000	0.000000	0.000000	0.000000	0.000000	1	1	0	0	0	0	0	0	0	0	0	0	0	0	0	0	0	0	0	1	0.000	0.000
112.000000	4423.076923	4607.692308	4442.051282	4212.820513	4575.384615	4592.820513	4557.435897	4283.076923	4016.410256	3869.743590	4238.974359	4189.743590	4496.410256	4499.487179	1721.000000	1690.000000	39.477000	0.000000	0.000000	0.000000	0.000000	1	1	0	0	0	0	0	0	0	0	0	0	0	0	0	0	0	0	0	1	0.000	0.000
113.000000	4422.564103	4608.717949	4446.666667	4214.358974	4575.384615	4591.794872	4554.871795	4284.615385	4014.358974	3869.230769	4239.487179	4195.384615	4495.897436	4502.051282	1721.000000	1691.000000	39.484000	0.000000	0.000000	0.000000	0.000000	1	1	0	0	0	0	0	0	0	0	0	0	0	0	0	0	0	0	0	1	0.000	0.000
114.000000	4417.948718	4604.615385	4444.615385	4216.923077	4574.871795	4591.282051	4557.435897	4285.641026	4016.410256	3870.769231	4243.589744	4191.794872	4495.384615	4499.487179	1721.000000	1690.000000	39.492000	0.000000	0.000000	0.000000	0.000000	1	1	0	0	0	0	0	0	0	0	0	0	0	0	0	0	0	0	0	1	0.000	0.000
115.000000	4423.076923	4610.769231	4450.256410	4218.974359	4575.897436	4590.769231	4553.333333	4282.051282	4017.948718	3870.256410	4243.589744	4193.333333	4496.410256	4497.948718	1721.000000	1691.000000	39.500000	0.000000	0.000000	0.000000	0.000000	1	1	0	0	0	0	0	0	0	0	0	0	0	0	0	0	0	0	0	1	0.000	0.000
116.000000	4421.538462	4609.230769	4440.000000	4212.820513	4576.410256	4590.769231	4554.358974	4284.615385	4016.923077	3869.230769	4242.051282	4189.230769	4496.410256	4495.897436	1721.000000	1690.000000	39.508000	0.000000	0.000000	0.000000	0.000000	1	1	0	0	0	0	0	0	0	0	0	0	0	0	0	0	0	0	0	1	0.000	0.000
117.000000	4421.538462	4609.230769	4445.641026	4213.846154	4576.410256	4589.743590	4553.333333	4285.641026	4016.410256	3869.743590	4244.615385	4195.384615	4495.897436	4499.487179	1720.000000	1691.000000	39.515000	0.000000	0.000000	0.000000	0.000000	1	1	0	0	0	0	0	0	0	0	0	0	0	0	0	0	0	0	0	1	0.000	0.000
118.000000	4418.974359	4607.692308	4444.102564	4214.871795	4577.948718	4588.717949	4558.974359	4283.589744	4016.923077	3870.256410	4244.615385	4194.358974	4496.923077	4498.974359	1721.000000	1690.000000	39.523000	0.000000	0.000000	0.000000	0.000000	1	1	0	0	0	0	0	0	0	0	0	0	0	0	0	0	0	0	0	1	0.000	0.000
119.000000	4421.538462	4612.307692	4446.666667	4215.897436	4577.435897	4588.717949	4553.333333	4282.051282	4017.435897	3869.743590	4241.538462	4193.846154	4497.948718	4496.410256	1720.000000	1691.000000	39.530000	0.000000	0.000000	0.000000	0.000000	1	1	0	0	0	0	0	0	0	0	0	0	0	0	0	0	0	0	0	1	0.000	0.000
120.000000	4420.000000	4606.666667	4441.025641	4213.333333	4575.384615	4590.256410	4555.897436	4287.692308	4016.410256	3868.205128	4240.000000	4189.743590	4494.871795	4495.897436	1721.000000	1691.000000	39.538000	0.000000	0.000000	0.000000	0.000000	1	1	0	0	0	0	0	0	0	0	0	0	0	0	0	0	0	0	0	1	0.000	0.000
121.000000	4422.051282	4604.615385	4444.615385	4214.871795	4573.333333	4590.769231	4554.358974	4285.641026	4015.384615	3867.692308	4241.538462	4192.820513	4495.384615	4498.974359	1720.000000	1690.000000	39.545000	0.000000	0.000000	0.000000	0.000000	1	1	0	0	0	0	0	0	0	0	0	0	0	0	0	0	0	0	0	1	0.000	0.000
122.000000	4421.025641	4605.641026	4444.615385	4214.358974	4574.358974	4590.769231	4554.358974	4283.076923	4014.358974	3868.717949	4243.076923	4191.794872	4496.923077	4498.461538	1721.000000	1691.000000	39.553000	0.000000	0.000000	0.000000	0.000000	1	1	0	0	0	0	0	0	0	0	0	0	0	0	0	0	0	0	0	1	0.000	0.000
123.000000	4423.076923	4608.205128	4445.641026	4213.333333	4574.871795	4589.230769	4554.358974	4283.076923	4013.846154	3869.743590	4243.076923	4192.820513	4494.358974	4497.948718	1721.000000	1690.000000	39.561000	0.000000	0.000000	0.000000	0.000000	1	1	0	0	0	0	0	0	0	0	0	0	0	0	0	0	0	0	0	1	0.000	0.000
124.000000	4424.615385	4606.153846	4441.025641	4214.358974	4575.384615	4587.179487	4555.897436	4284.102564	4014.358974	3868.205128	4241.538462	4192.307692	4492.820513	4498.974359	1720.000000	1691.000000	39.568000	0.000000	0.000000	0.000000	0.000000	1	1	0	0	0	0	0	0	0	0	0	0	0	0	0	0	0	0	0	1	0.000	0.000
125.000000	4421.025641	4606.153846	4438.461538	4215.384615	4576.923077	4589.743590	4554.871795	4285.641026	4015.897436	3868.205128	4241.538462	4191.794872	4495.897436	4498.974359	1721.000000	1691.000000	39.578000	0.000000	0.000000	0.000000	0.000000	1	1	0	0	0	0	0	0	0	0	0	0	0	0	0	0	0	0	0	1	0.000	0.000
126.000000	4419.487179	4608.205128	4444.102564	4215.384615	4578.461538	4590.256410	4553.333333	4283.589744	4016.410256	3870.256410	4243.589744	4192.820513	4495.384615	4496.923077	1720.000000	1691.000000	39.586000	0.000000	0.000000	0.000000	0.000000	1	1	0	0	0	0	0	0	0	0	0	0	0	0	0	0	0	0	0	1	0.000	0.000
127.000000	4422.564103	4607.179487	4444.102564	4214.871795	4578.974359	4590.256410	4556.923077	4283.076923	4017.435897	3870.769231	4244.102564	4191.282051	4492.307692	4497.435897	1721.000000	1691.000000	39.594000	0.000000	0.000000	0.000000	0.000000	1	1	0	0	0	0	0	0	0	0	0	0	0	0	0	0	0	0	0	1	0.000	0.000
128.000000	4423.589744	4609.743590	4443.076923	4214.358974	4578.461538	4591.282051	4556.923077	4283.076923	4016.923077	3867.692308	4243.076923	4194.358974	4492.820513	4500.512821	1720.000000	1691.000000	39.602000	0.000000	0.000000	0.000000	0.000000	1	1	0	0	0	0	0	0	0	0	0	0	0	0	0	0	0	0	0	1	0.000	0.000
0.000000	4418.974359	4608.717949	4440.000000	4212.820513	4576.923077	4592.820513	4556.923077	4286.153846	4015.897436	3868.205128	4242.051282	4190.256410	4495.384615	4501.025641	1722.000000	1691.000000	39.610000	0.000000	0.000000	0.000000	0.000000	1	1	0	0	0	0	0	0	0	0	0	0	0	0	0	0	0	0	0	1	0.000	0.000
1.000000	4423.076923	4608.205128	4449.230769	4215.384615	4575.384615	4590.769231	4552.307692	4283.589744	4015.897436	3870.769231	4242.564103	4193.846154	4496.923077	4500.512821	1720.000000	1691.000000	39.617000	0.000000	0.000000	0.000000	0.000000	1	1	0	0	0	0	0	0	0	0	0	0	0	0	0	0	0	0	0	1	0.000	0.000
2.000000	4422.051282	4606.153846	4442.051282	4214.871795	4576.923077	4591.794872	4556.410256	4283.076923	4018.461538	3869.230769	4241.538462	4190.256410	4494.871795	4498.461538	1721.000000	1692.000000	39.624000	0.000000	0.000000	0.000000	0.000000	1	1	0	0	0	0	0	0	0	0	0	0	0	0	0	0	0	0	0	1	0.000	0.000
3.000000	4421.538462	4610.256410	4444.615385	4214.358974	4577.435897	4590.769231	4554.871795	4284.102564	4018.461538	3868.205128	4241.538462	4195.384615	4494.358974	4498.461538	1721.000000	1690.000000	39.633000	0.000000	0.000000	0.000000	0.000000	1	1	0	0	0	0	0	0	0	0	0	0	0	0	0	0	0	0	0	1	0.000	0.000
4.000000	4415.897436	4605.641026	4441.538462	4213.333333	4576.410256	4589.230769	4555.897436	4286.153846	4016.410256	3870.769231	4243.076923	4191.282051	4494.871795	4497.435897	1721.000000	1692.000000	39.641000	0.000000	0.000000	0.000000	0.000000	1	1	0	0	0	0	0	0	0	0	0	0	0	0	0	0	0	0	0	1	0.000	0.000
5.000000	4418.461538	4607.692308	4449.230769	4218.461538	4575.384615	4589.743590	4552.820513	4284.615385	4015.897436	3870.769231	4241.538462	4193.846154	4495.384615	4499.487179	1721.000000	1690.000000	39.649000	0.000000	0.000000	0.000000	0.000000	1	1	0	0	0	0	0	0	0	0	0	0	0	0	0	0	0	0	0	1	0.000	0.000
6.000000	4417.948718	4607.692308	4441.538462	4216.923077	4576.923077	4590.256410	4555.897436	4284.615385	4016.923077	3869.230769	4237.435897	4190.769231	4493.846154	4498.974359	1720.000000	1692.000000	39.656000	0.000000	0.000000	0.000000	0.000000	1	1	0	0	0	0	0	0	0	0	0	0	0	0	0	0	0	0	0	1	0.000	0.000
7.000000	4422.051282	4610.256410	4443.589744	4215.384615	4577.435897	4587.692308	4552.820513	4284.615385	4016.410256	3870.256410	4240.000000	4193.846154	4493.846154	4499.487179	1721.000000	1691.000000	39.664000	0.000000	0.000000	0.000000	0.000000	1	1	0	0	0	0	0	0	0	0	0	0	0	0	0	0	0	0	0	1	0.000	0.000
8.000000	4421.025641	4605.641026	4442.051282	4211.794872	4575.384615	4588.717949	4556.923077	4283.589744	4016.923077	3869.743590	4243.076923	4191.794872	4495.384615	4497.435897	1720.000000	1691.000000	39.672000	0.000000	0.000000	0.000000	0.000000	1	1	0	0	0	0	0	0	0	0	0	0	0	0	0	0	0	0	0	1	0.000	0.000
9.000000	4420.512821	4605.128205	4445.128205	4212.307692	4572.820513	4590.769231	4553.333333	4284.615385	4018.974359	3867.692308	4241.538462	4191.794872	4498.461538	4495.384615	1721.000000	1691.000000	39.680000	0.000000	0.000000	0.000000	0.000000	1	1	0	0	0	0	0	0	0	0	0	0	0	0	0	0	0	0	0	1	0.000	0.000
10.000000	4420.512821	4606.666667	4443.589744	4212.820513	4574.358974	4590.769231	4554.358974	4286.666667	4018.974359	3867.692308	4241.025641	4192.307692	4496.410256	4494.358974	1721.000000	1691.000000	39.688000	0.000000	0.000000	0.000000	0.000000	1	1	0	0	0	0	0	0	0	0	0	0	0	0	0	0	0	0	0	1	0.000	0.000
11.000000	4422.051282	4610.769231	4443.076923	4213.846154	4576.410256	4589.230769	4555.897436	4284.102564	4015.897436	3869.230769	4242.564103	4193.333333	4493.333333	4497.948718	1721.000000	1691.000000	39.696000	0.000000	0.000000	0.000000	0.000000	1	1	0	0	0	0	0	0	0	0	0	0	0	0	0	0	0	0	0	1	0.000	0.000
12.000000	4423.076923	4610.256410	4445.128205	4213.333333	4573.333333	4590.256410	4554.871795	4285.128205	4014.871795	3870.256410	4242.051282	4191.794872	4493.846154	4499.487179	1721.000000	1690.000000	39.703000	0.000000	0.000000	0.000000	0.000000	1	1	0	0	0	0	0	0	0	0	0	0	0	0	0	0	0	0	0	1	0.000	0.000
13.000000	4421.538462	4608.205128	4443.076923	4213.333333	4572.307692	4591.794872	4555.897436	4287.179487	4016.923077	3870.256410	4242.051282	4190.769231	4494.871795	4496.923077	1721.000000	1691.000000	39.711000	0.000000	0.000000	0.000000	0.000000	1	1	0	0	0	0	0	0	0	0	0	0	0	0	0	0	0	0	0	1	0.000	0.000
14.000000	4422.051282	4608.205128	4445.641026	4215.384615	4574.871795	4588.205128	4554.358974	4281.538462	4016.410256	3868.717949	4243.589744	4194.871795	4494.358974	4497.435897	1720.000000	1691.000000	39.719000	0.000000	0.000000	0.000000	0.000000	1	1	0	0	0	0	0	0	0	0	0	0	0	0	0	0	0	0	0	1	0.000	0.000
15.000000	4420.512821	4605.641026	4443.589744	4216.410256	4575.384615	4586.153846	4555.384615	4282.564103	4014.871795	3869.230769	4243.076923	4191.794872	4493.846154	4498.461538	1721.000000	1691.000000	39.727000	0.000000	0.000000	0.000000	0.000000	1	1	0	0	0	0	0	0	0	0	0	0	0	0	0	0	0	0	0	1	0.000	0.000
16.000000	4421.538462	4606.153846	4446.666667	4216.923077	4574.358974	4586.153846	4552.820513	4285.641026	4015.897436	3871.282051	4243.589744	4191.282051	4493.333333	4498.461538	1720.000000	1691.000000	39.735000	0.000000	0.000000	0.000000	0.000000	1	1	0	0	0	0	0	0	0	0	0	0	0	0	0	0	0	0	0	1	0.000	0.000
17.000000	4421.025641	4605.128205	4440.512821	4212.820513	4576.410256	4588.717949	4555.897436	4285.128205	4017.948718	3871.794872	4242.051282	4190.256410	4492.820513	4498.974359	1721.000000	1691.000000	39.742000	0.000000	0.000000	0.000000	0.000000	1	1	0	0	0	0	0	0	0	0	0	0	0	0	0	0	0	0	0	1	0.000	0.000
18.000000	4425.641026	4608.205128	4447.179487	4213.846154	4576.410256	4590.769231	4552.820513	4282.051282	4017.948718	3869.230769	4240.512821	4196.923077	4495.384615	4501.025641	1721.000000	1690.000000	39.750000	0.000000	0.000000	0.000000	0.000000	1	1	0	0	0	0	0	0	0	0	0	0	0	0	0	0	0	0	0	1	0.000	0.000
19.000000	4421.538462	4606.153846	4442.051282	4215.384615	4575.897436	4592.820513	4557.435897	4285.641026	4017.435897	3868.205128	4240.512821	4189.743590	4495.897436	4497.435897	1721.000000	1690.000000	39.758000	0.000000	0.000000	0.000000	0.000000	1	1	0	0	0	0	0	0	0	0	0	0	0	0	0	0	0	0	0	1	0.000	0.000
20.000000	4422.051282	4608.205128	4444.615385	4215.897436	4575.897436	4590.769231	4555.897436	4284.102564	4017.435897	3868.205128	4244.102564	4191.794872	4493.333333	4495.384615	1720.000000	1691.000000	39.766000	0.000000	0.000000	0.000000	0.000000	1	1	0	0	0	0	0	0	0	0	0	0	0	0	0	0	0	0	0	1	0.000	0.000
21.000000	4422.051282	4605.641026	4440.512821	4211.282051	4575.897436	4589.743590	4555.384615	4283.589744	4016.410256	3868.205128	4245.128205	4191.282051	4490.769231	4496.923077	1721.000000	1690.000000	39.774000	0.000000	0.000000	0.000000	0.000000	1	1	0	0	0	0	0	0	0	0	0	0	0	0	0	0	0	0	0	1	0.000	0.000
22.000000	4425.128205	4607.692308	4448.205128	4213.846154	4574.871795	4589.230769	4551.282051	4284.615385	4013.846154	3868.205128	4243.589744	4197.435897	4493.846154	4498.974359	1721.000000	1691.000000	39.782000	0.000000	0.000000	0.000000	0.000000	1	1	0	0	0	0	0	0	0	0	0	0	0	0	0	0	0	0	0	1	0.000	0.000
23.000000	4421.025641	4604.102564	4443.589744	4213.846154	4575.384615	4588.717949	4556.410256	4285.128205	4012.307692	3869.743590	4241.538462	4192.820513	4495.897436	4495.384615	1721.000000	1692.000000	39.789000	0.000000	0.000000	0.000000	0.000000	1	1	0	0	0	0	0	0	0	0	0	0	0	0	0	0	0	0	0	1	0.000	0.000
24.000000	4421.538462	4607.692308	4445.128205	4213.846154	4577.435897	4588.717949	4556.923077	4283.076923	4015.384615	3870.769231	4242.051282	4193.333333	4497.435897	4494.871795	1721.000000	1690.000000	39.797000	0.000000	0.000000	0.000000	0.000000	1	1	0	0	0	0	0	0	0	0	0	0	0	0	0	0	0	0	0	1	0.000	0.000
25.000000	4418.974359	4608.205128	4442.051282	4214.871795	4578.461538	4591.282051	4556.410256	4283.076923	4016.923077	3869.743590	4242.051282	4194.358974	4496.923077	4495.897436	1720.000000	1691.000000	39.805000	0.000000	0.000000	0.000000	0.000000	1	1	0	0	0	0	0	0	0	0	0	0	0	0	0	0	0	0	0	1	0.000	0.000
26.000000	4417.948718	4610.256410	4446.153846	4216.923077	4576.410256	4591.282051	4551.282051	4284.102564	4014.871795	3868.717949	4241.538462	4194.358974	4496.410256	4498.461538	1721.000000	1691.000000	39.813000	0.000000	0.000000	0.000000	0.000000	1	1	0	0	0	0	0	0	0	0	0	0	0	0	0	0	0	0	0	1	0.000	0.000
27.000000	4418.461538	4608.717949	4448.717949	4212.307692	4575.384615	4589.230769	4553.333333	4284.615385	4015.897436	3869.743590	4243.076923	4191.794872	4494.871795	4499.487179	1721.000000	1690.000000	39.821000	0.000000	0.000000	0.000000	0.000000	1	1	0	0	0	0	0	0	0	0	0	0	0	0	0	0	0	0	0	1	0.000	0.000
28.000000	4420.000000	4609.230769	4446.153846	4211.282051	4577.948718	4589.230769	4555.897436	4285.641026	4017.948718	3870.256410	4243.076923	4190.256410	4494.871795	4499.487179	1721.000000	1691.000000	39.828000	0.000000	0.000000	0.000000	0.000000	1	1	0	0	0	0	0	0	0	0	0	0	0	0	0	0	0	0	0	1	0.000	0.000
29.000000	4421.538462	4609.743590	4445.128205	4213.846154	4577.948718	4589.230769	4555.384615	4284.615385	4017.435897	3870.256410	4243.076923	4192.820513	4495.384615	4498.974359	1720.000000	1691.000000	39.836000	0.000000	0.000000	0.000000	0.000000	1	1	0	0	0	0	0	0	0	0	0	0	0	0	0	0	0	0	0	1	0.000	0.000
30.000000	4420.000000	4607.692308	4443.589744	4213.333333	4574.871795	4590.256410	4552.820513	4284.615385	4015.897436	3870.769231	4243.076923	4189.743590	4494.871795	4497.948718	1721.000000	1691.000000	39.844000	0.000000	0.000000	0.000000	0.000000	1	1	0	0	0	0	0	0	0	0	0	0	0	0	0	0	0	0	0	1	0.000	0.000
31.000000	4421.538462	4610.256410	4446.666667	4213.333333	4574.871795	4592.307692	4549.743590	4285.128205	4015.384615	3870.256410	4242.564103	4190.769231	4494.358974	4497.948718	1721.000000	1690.000000	39.852000	0.000000	0.000000	0.000000	0.000000	1	1	0	0	0	0	0	0	0	0	0	0	0	0	0	0	0	0	0	1	0.000	0.000
32.000000	4420.512821	4608.205128	4441.538462	4212.820513	4577.435897	4593.846154	4554.358974	4285.641026	4015.897436	3870.256410	4241.025641	4191.282051	4493.333333	4496.923077	1721.000000	1691.000000	39.860000	0.000000	0.000000	0.000000	0.000000	1	1	0	0	0	0	0	0	0	0	0	0	0	0	0	0	0	0	0	1	0.000	0.000
33.000000	4422.564103	4610.256410	4446.153846	4212.820513	4576.410256	4590.769231	4551.794872	4284.102564	4015.897436	3870.769231	4242.564103	4197.435897	4494.871795	4498.974359	1721.000000	1691.000000	39.867000	0.000000	0.000000	0.000000	0.000000	1	1	0	0	0	0	0	0	0	0	0	0	0	0	0	0	0	0	0	1	0.000	0.000
34.000000	4417.948718	4607.692308	4441.538462	4212.820513	4575.897436	4589.230769	4554.358974	4287.692308	4015.897436	3869.230769	4242.564103	4193.333333	4494.358974	4501.025641	1720.000000	1692.000000	39.875000	0.000000	0.000000	0.000000	0.000000	1	1	0	0	0	0	0	0	0	0	0	0	0	0	0	0	0	0	0	1	0.000	0.000
35.000000	4420.512821	4608.205128	4446.666667	4216.923077	4577.435897	4589.743590	4552.820513	4285.128205	4016.410256	3868.717949	4242.051282	4195.384615	4492.307692	4502.051282	1721.000000	1689.000000	39.883000	0.000000	0.000000	0.000000	0.000000	1	1	0	0	0	0	0	0	0	0	0	0	0	0	0	0	0	0	0	1	0.000	0.000
36.000000	4420.512821	4605.128205	4443.076923	4214.358974	4577.948718	4591.282051	4556.923077	4284.615385	4018.461538	3869.743590	4240.512821	4191.794872	4492.307692	4497.435897	1720.000000	1691.000000	39.891000	0.000000	0.000000	0.000000	0.000000	1	1	0	0	0	0	0	0	0	0	0	0	0	0	0	0	0	0	0	1	0.000	0.000
37.000000	4423.076923	4610.769231	4448.717949	4215.384615	4575.384615	4588.205128	4554.871795	4284.102564	4015.384615	3870.256410	4241.538462	4195.897436	4495.897436	4496.923077	1721.000000	1690.000000	39.899000	0.000000	0.000000	0.000000	0.000000	1	1	0	0	0	0	0	0	0	0	0	0	0	0	0	0	0	0	0	1	0.000	0.000
38.000000	4419.487179	4607.692308	4440.512821	4215.384615	4575.897436	4586.153846	4557.435897	4284.615385	4013.846154	3869.743590	4243.589744	4191.794872	4495.897436	4497.948718	1720.000000	1691.000000	39.907000	0.000000	0.000000	0.000000	0.000000	1	1	0	0	0	0	0	0	0	0	0	0	0	0	0	0	0	0	0	1	0.000	0.000
39.000000	4422.564103	4608.205128	4443.076923	4214.871795	4577.948718	4589.743590	4554.358974	4283.076923	4017.435897	3868.717949	4242.564103	4196.923077	4494.871795	4497.435897	1721.000000	1691.000000	39.914000	0.000000	0.000000	0.000000	0.000000	1	1	0	0	0	0	0	0	0	0	0	0	0	0	0	0	0	0	0	1	0.000	0.000
40.000000	4421.538462	4607.692308	4442.051282	4213.333333	4574.871795	4592.307692	4556.923077	4284.615385	4017.435897	3869.743590	4240.512821	4192.820513	4493.333333	4494.358974	1721.000000	1691.000000	39.922000	0.000000	0.000000	0.000000	0.000000	1	1	0	0	0	0	0	0	0	0	0	0	0	0	0	0	0	0	0	1	0.000	0.000
41.000000	4420.000000	4608.717949	4444.615385	4214.358974	4571.282051	4589.230769	4555.897436	4285.128205	4013.333333	3870.256410	4239.487179	4191.282051	4493.846154	4496.410256	1721.000000	1690.000000	39.929000	0.000000	0.000000	0.000000	0.000000	1	1	0	0	0	0	0	0	0	0	0	0	0	0	0	0	0	0	0	1	0.000	0.000
42.000000	4420.000000	4604.102564	4441.538462	4212.820513	4574.871795	4588.205128	4554.871795	4283.589744	4011.282051	3869.743590	4240.512821	4191.794872	4492.820513	4497.948718	1720.000000	1691.000000	39.936000	0.000000	0.000000	0.000000	0.000000	1	1	0	0	0	0	0	0	0	0	0	0	0	0	0	0	0	0	0	1	0.000	0.000
43.000000	4424.615385	4608.205128	4444.615385	4213.846154	4577.435897	4590.769231	4553.333333	4282.051282	4013.846154	3869.230769	4242.051282	4194.358974	4494.358974	4498.461538	1721.000000	1691.000000	39.944000	0.000000	0.000000	0.000000	0.000000	1	1	0	0	0	0	0	0	0	0	0	0	0	0	0	0	0	0	0	1	0.000	0.000
44.000000	4422.051282	4608.717949	4446.153846	4213.333333	4574.871795	4592.307692	4554.358974	4282.564103	4016.923077	3869.230769	4243.076923	4193.846154	4495.384615	4498.974359	1721.000000	1690.000000	39.952000	0.000000	0.000000	0.000000	0.000000	1	1	0	0	0	0	0	0	0	0	0	0	0	0	0	0	0	0	0	1	0.000	0.000
45.000000	4418.461538	4604.615385	4443.076923	4210.769231	4574.358974	4589.743590	4553.333333	4285.128205	4017.435897	3869.230769	4241.538462	4191.794872	4497.435897	4500.000000	1720.000000	1692.000000	39.959000	0.000000	0.000000	0.000000	0.000000	1	1	0	0	0	0	0	0	0	0	0	0	0	0	0	0	0	0	0	1	0.000	0.000
46.000000	4422.051282	4606.153846	4447.179487	4211.794872	4576.923077	4587.692308	4551.282051	4284.615385	4015.384615	3871.282051	4242.051282	4194.871795	4497.948718	4501.538462	1721.000000	1691.000000	39.969000	0.000000	0.000000	0.000000	0.000000	1	1	0	0	0	0	0	0	0	0	0	0	0	0	0	0	0	0	0	1	0.000	0.000
47.000000	4422.051282	4608.717949	4445.641026	4214.871795	4577.435897	4590.769231	4553.846154	4285.641026	4014.358974	3871.282051	4242.051282	4191.794872	4495.384615	4501.538462	1720.000000	1691.000000	39.977000	0.000000	0.000000	0.000000	0.000000	1	1	0	0	0	0	0	0	0	0	0	0	0	0	0	0	0	0	0	1	0.000	0.000
48.000000	4422.564103	4608.205128	4446.666667	4215.897436	4576.923077	4590.256410	4554.871795	4285.641026	4014.871795	3868.717949	4242.051282	4193.333333	4494.871795	4501.025641	1721.000000	1691.000000	39.985000	0.000000	0.000000	0.000000	0.000000	1	1	0	0	0	0	0	0	0	0	0	0	0	0	0	0	0	0	0	1	0.000	0.000
49.000000	4420.512821	4603.076923	4440.512821	4212.307692	4576.410256	4589.230769	4557.435897	4283.589744	4016.410256	3869.230769	4241.025641	4189.743590	4495.384615	4497.948718	1720.000000	1691.000000	39.993000	0.000000	0.000000	0.000000	0.000000	1	1	0	0	0	0	0	0	0	0	0	0	0	0	0	0	0	0	0	1	0.000	0.000
50.000000	4424.615385	4608.205128	4446.666667	4214.358974	4574.871795	4589.743590	4550.769231	4282.564103	4016.410256	3870.769231	4241.025641	4192.307692	4494.871795	4495.897436	1721.000000	1691.000000	40.000000	0.000000	0.000000	0.000000	0.000000	1	1	0	0	0	0	0	0	0	0	0	0	0	0	0	0	0	0	0	1	0.000	0.000
51.000000	4421.025641	4607.179487	4441.538462	4213.846154	4575.897436	4591.282051	4554.871795	4287.692308	4016.410256	3870.256410	4242.051282	4190.256410	4495.384615	4496.410256	1721.000000	1690.000000	40.008000	0.000000	0.000000	0.000000	0.000000	1	1	0	0	0	0	0	0	0	0	0	0	0	0	0	0	0	0	0	1	0.000	0.000
52.000000	4422.564103	4607.179487	4444.615385	4215.897436	4574.871795	4590.256410	4553.846154	4284.615385	4017.948718	3869.743590	4243.589744	4194.358974	4497.435897	4497.435897	1721.000000	1691.000000	40.015000	0.000000	0.000000	0.000000	0.000000	1	1	0	0	0	0	0	0	0	0	0	0	0	0	0	0	0	0	0	1	0.000	0.000
53.000000	4421.025641	4604.615385	4441.025641	4215.897436	4573.846154	4590.256410	4555.384615	4283.589744	4017.435897	3869.230769	4241.538462	4190.256410	4494.871795	4495.384615	1721.000000	1690.000000	40.022000	0.000000	0.000000	0.000000	0.000000	1	1	0	0	0	0	0	0	0	0	0	0	0	0	0	0	0	0	0	1	0.000	0.000
54.000000	4422.564103	4609.230769	4448.205128	4215.897436	4575.897436	4589.743590	4553.846154	4283.589744	4016.410256	3869.230769	4241.025641	4193.846154	4495.897436	4497.948718	1720.000000	1691.000000	40.030000	0.000000	0.000000	0.000000	0.000000	1	1	0	0	0	0	0	0	0	0	0	0	0	0	0	0	0	0	0	1	0.000	0.000
55.000000	4419.487179	4608.205128	4444.615385	4211.794872	4577.435897	4590.256410	4557.948718	4284.102564	4017.948718	3869.230769	4244.102564	4190.769231	4498.461538	4498.974359	1721.000000	1691.000000	40.038000	0.000000	0.000000	0.000000	0.000000	1	1	0	0	0	0	0	0	0	0	0	0	0	0	0	0	0	0	0	1	0.000	0.000
56.000000	4422.051282	4611.282051	4445.641026	4215.384615	4575.384615	4591.794872	4554.358974	4283.589744	4016.410256	3869.230769	4244.615385	4194.358974	4496.410256	4498.974359	1721.000000	1691.000000	40.045000	0.000000	0.000000	0.000000	0.000000	1	1	0	0	0	0	0	0	0	0	0	0	0	0	0	0	0	0	0	1	0.000	0.000
57.000000	4422.051282	4607.179487	4442.564103	4218.461538	4575.384615	4591.282051	4552.820513	4284.102564	4013.846154	3869.230769	4241.538462	4193.333333	4493.846154	4497.948718	1721.000000	1690.000000	40.055000	0.000000	0.000000	0.000000	0.000000	1	1	0	0	0	0	0	0	0	0	0	0	0	0	0	0	0	0	0	1	0.000	0.000
58.000000	4420.512821	4606.153846	4446.666667	4215.384615	4577.435897	4590.256410	4551.282051	4283.076923	4014.871795	3869.230769	4241.025641	4191.794872	4495.384615	4498.974359	1720.000000	1691.000000	40.063000	0.000000	0.000000	0.000000	0.000000	1	1	0	0	0	0	0	0	0	0	0	0	0	0	0	0	0	0	0	1	0.000	0.000
59.000000	4420.000000	4607.692308	4444.102564	4211.794872	4574.871795	4590.256410	4554.358974	4283.589744	4015.384615	3869.743590	4244.102564	4188.717949	4492.820513	4497.435897	1722.000000	1691.000000	40.071000	0.000000	0.000000	0.000000	0.000000	1	1	0	0	0	0	0	0	0	0	0	0	0	0	0	0	0	0	0	1	0.000	0.000
60.000000	4422.051282	4608.717949	4441.538462	4214.871795	4573.846154	4589.743590	4557.435897	4286.666667	4016.410256	3870.256410	4244.615385	4190.256410	4493.846154	4498.461538	1720.000000	1691.000000	40.079000	0.000000	0.000000	0.000000	0.000000	1	1	0	0	0	0	0	0	0	0	0	0	0	0	0	0	0	0	0	1	0.000	0.000
61.000000	4420.512821	4604.102564	4441.538462	4216.923077	4575.384615	4588.717949	4556.923077	4284.615385	4017.948718	3868.717949	4240.512821	4190.769231	4497.948718	4501.025641	1721.000000	1691.000000	40.086000	0.000000	0.000000	0.000000	0.000000	1	1	0	0	0	0	0	0	0	0	0	0	0	0	0	0	0	0	0	1	0.000	0.000
62.000000	4420.512821	4604.615385	4440.000000	4215.897436	4576.410256	4589.743590	4556.410256	4284.102564	4017.948718	3868.717949	4237.435897	4188.205128	4495.897436	4499.487179	1721.000000	1691.000000	40.094000	0.000000	0.000000	0.000000	0.000000	1	1	0	0	0	0	0	0	0	0	0	0	0	0	0	0	0	0	0	1	0.000	0.000
63.000000	4425.128205	4609.230769	4445.641026	4215.897436	4577.435897	4590.256410	4557.948718	4284.102564	4014.871795	3869.230769	4242.051282	4194.358974	4492.820513	4497.948718	1721.000000	1691.000000	40.102000	0.000000	0.000000	0.000000	0.000000	1	1	0	0	0	0	0	0	0	0	0	0	0	0	0	0	0	0	0	1	0.000	0.000
64.000000	4420.000000	4606.153846	4443.589744	4213.846154	4578.974359	4590.256410	4558.461538	4286.666667	4015.897436	3868.205128	4242.564103	4190.769231	4493.333333	4499.487179	1721.000000	1690.000000	40.110000	0.000000	0.000000	0.000000	0.000000	1	1	0	0	0	0	0	0	0	0	0	0	0	0	0	0	0	0	0	1	0.000	0.000
65.000000	4417.435897	4607.692308	4446.666667	4213.333333	4575.897436	4589.743590	4552.820513	4285.641026	4018.461538	3868.205128	4240.000000	4191.794872	4496.410256	4499.487179	1721.000000	1691.000000	40.118000	0.000000	0.000000	0.000000	0.000000	1	1	0	0	0	0	0	0	0	0	0	0	0	0	0	0	0	0	0	1	0.000	0.000
66.000000	4416.410256	4608.717949	4442.564103	4213.846154	4575.384615	4590.769231	4554.871795	4285.128205	4016.923077	3870.256410	4240.000000	4189.743590	4495.897436	4495.897436	1721.000000	1691.000000	40.126000	0.000000	0.000000	0.000000	0.000000	1	1	0	0	0	0	0	0	0	0	0	0	0	0	0	0	0	0	0	1	0.000	0.000
67.000000	4423.589744	4612.820513	4450.256410	4218.974359	4575.897436	4592.307692	4551.794872	4283.589744	4015.384615	3870.256410	4241.538462	4195.897436	4495.384615	4499.487179	1720.000000	1691.000000	40.133000	0.000000	0.000000	0.000000	0.000000	1	1	0	0	0	0	0	0	0	0	0	0	0	0	0	0	0	0	0	1	0.000	0.000
68.000000	4421.538462	4606.666667	4442.564103	4215.897436	4575.897436	4592.307692	4554.871795	4286.666667	4015.897436	3869.743590	4242.051282	4190.769231	4495.384615	4500.000000	1721.000000	1690.000000	40.141000	0.000000	0.000000	0.000000	0.000000	1	1	0	0	0	0	0	0	0	0	0	0	0	0	0	0	0	0	0	1	0.000	0.000
69.000000	4420.512821	4607.692308	4444.615385	4215.384615	4576.923077	4587.692308	4553.333333	4286.153846	4016.410256	3870.256410	4245.128205	4193.333333	4497.948718	4498.461538	1721.000000	1691.000000	40.149000	0.000000	0.000000	0.000000	0.000000	1	1	0	0	0	0	0	0	0	0	0	0	0	0	0	0	0	0	0	1	0.000	0.000
70.000000	4417.948718	4606.153846	4440.512821	4214.358974	4577.948718	4587.692308	4558.461538	4285.641026	4015.897436	3871.794872	4243.589744	4191.794872	4496.410256	4496.923077	1721.000000	1691.000000	40.157000	0.000000	0.000000	0.000000	0.000000	1	1	0	0	0	0	0	0	0	0	0	0	0	0	0	0	0	0	0	1	0.000	0.000
71.000000	4422.564103	4608.717949	4445.641026	4216.923077	4575.384615	4590.769231	4554.358974	4284.102564	4016.410256	3870.256410	4240.512821	4192.820513	4494.358974	4500.000000	1720.000000	1691.000000	40.165000	0.000000	0.000000	0.000000	0.000000	1	1	0	0	0	0	0	0	0	0	0	0	0	0	0	0	0	0	0	1	0.000	0.000
72.000000	4419.487179	4607.179487	4446.153846	4216.410256	4575.384615	4590.769231	4555.384615	4285.128205	4015.384615	3869.230769	4242.051282	4189.743590	4494.871795	4500.000000	1721.000000	1690.000000	40.173000	0.000000	0.000000	0.000000	0.000000	1	1	0	0	0	0	0	0	0	0	0	0	0	0	0	0	0	0	0	1	0.000	0.000
73.000000	4419.487179	4610.256410	4448.205128	4216.410256	4575.897436	4588.717949	4552.820513	4282.564103	4015.897436	3869.230769	4242.564103	4192.307692	4495.384615	4500.000000	1720.000000	1690.000000	40.180000	0.000000	0.000000	0.000000	0.000000	1	1	0	0	0	0	0	0	0	0	0	0	0	0	0	0	0	0	0	1	0.000	0.000
74.000000	4421.025641	4607.692308	4441.538462	4214.871795	4573.333333	4590.256410	4554.871795	4282.564103	4018.461538	3869.230769	4242.051282	4190.769231	4493.333333	4497.435897	1720.000000	1690.000000	40.188000	0.000000	0.000000	0.000000	0.000000	1	1	0	0	0	0	0	0	0	0	0	0	0	0	0	0	0	0	0	1	0.000	0.000
75.000000	4422.564103	4606.666667	4443.589744	4216.410256	4574.358974	4592.307692	4556.410256	4285.641026	4018.974359	3868.205128	4242.564103	4192.307692	4494.871795	4497.948718	1721.000000	1691.000000	40.196000	0.000000	0.000000	0.000000	0.000000	1	1	0	0	0	0	0	0	0	0	0	0	0	0	0	0	0	0	0	1	0.000	0.000
76.000000	4421.538462	4607.179487	4447.692308	4216.923077	4576.923077	4591.794872	4553.333333	4284.615385	4016.410256	3868.717949	4241.538462	4194.871795	4496.410256	4497.948718	1721.000000	1691.000000	40.204000	0.000000	0.000000	0.000000	0.000000	1	1	0	0	0	0	0	0	0	0	0	0	0	0	0	0	0	0	0	1	0.000	0.000
77.000000	4421.025641	4608.205128	4444.102564	4215.384615	4576.410256	4592.307692	4552.307692	4283.076923	4015.897436	3871.282051	4240.512821	4193.846154	4495.897436	4496.410256	1720.000000	1691.000000	40.212000	0.000000	0.000000	0.000000	0.000000	1	1	0	0	0	0	0	0	0	0	0	0	0	0	0	0	0	0	0	1	0.000	0.000
78.000000	4419.487179	4608.717949	4443.076923	4214.358974	4576.410256	4592.307692	4553.846154	4281.538462	4018.461538	3870.256410	4242.051282	4192.820513	4494.871795	4497.435897	1722.000000	1691.000000	40.219000	0.000000	0.000000	0.000000	0.000000	1	1	0	0	0	0	0	0	0	0	0	0	0	0	0	0	0	0	0	1	0.000	0.000
79.000000	4420.512821	4607.692308	4444.615385	4214.871795	4576.410256	4591.282051	4556.410256	4282.564103	4018.461538	3868.717949	4241.025641	4188.717949	4495.897436	4498.974359	1720.000000	1690.000000	40.227000	0.000000	0.000000	0.000000	0.000000	1	1	0	0	0	0	0	0	0	0	0	0	0	0	0	0	0	0	0	1	0.000	0.000
80.000000	4424.102564	4608.205128	4447.692308	4214.871795	4574.871795	4589.743590	4554.358974	4283.589744	4014.871795	3868.205128	4241.538462	4191.282051	4496.923077	4498.974359	1721.000000	1691.000000	40.235000	0.000000	0.000000	0.000000	0.000000	1	1	0	0	0	0	0	0	0	0	0	0	0	0	0	0	0	0	0	1	0.000	0.000
81.000000	4421.025641	4606.666667	4438.974359	4213.846154	4573.846154	4591.282051	4557.435897	4284.102564	4016.410256	3868.717949	4244.102564	4188.717949	4495.384615	4497.948718	1721.000000	1691.000000	40.243000	0.000000	0.000000	0.000000	0.000000	1	1	0	0	0	0	0	0	0	0	0	0	0	0	0	0	0	0	0	1	0.000	0.000
82.000000	4423.589744	4609.230769	4445.641026	4215.897436	4573.846154	4590.256410	4554.358974	4282.564103	4018.461538	3869.743590	4243.589744	4194.871795	4494.358974	4498.974359	1720.000000	1691.000000	40.251000	0.000000	0.000000	0.000000	0.000000	1	1	0	0	0	0	0	0	0	0	0	0	0	0	0	0	0	0	0	1	0.000	0.000
83.000000	4422.051282	4605.128205	4442.051282	4214.358974	4576.410256	4589.230769	4555.897436	4287.179487	4016.410256	3869.230769	4241.025641	4191.282051	4494.358974	4497.435897	1720.000000	1690.000000	40.259000	0.000000	0.000000	0.000000	0.000000	1	1	0	0	0	0	0	0	0	0	0	0	0	0	0	0	0	0	0	1	0.000	0.000
84.000000	4423.076923	4606.666667	4446.666667	4214.358974	4577.948718	4590.256410	4553.333333	4286.666667	4015.384615	3867.692308	4243.589744	4194.871795	4494.871795	4498.461538	1721.000000	1691.000000	40.266000	0.000000	0.000000	0.000000	0.000000	1	1	0	0	0	0	0	0	0	0	0	0	0	0	0	0	0	0	0	1	0.000	0.000
85.000000	4421.025641	4605.641026	4441.538462	4213.846154	4576.410256	4591.794872	4555.384615	4284.102564	4015.897436	3868.717949	4243.589744	4192.307692	4493.333333	4496.923077	1721.000000	1690.000000	40.274000	0.000000	0.000000	0.000000	0.000000	1	1	0	0	0	0	0	0	0	0	0	0	0	0	0	0	0	0	0	1	0.000	0.000
86.000000	4424.615385	4611.282051	4448.205128	4216.410256	4574.871795	4588.717949	4553.333333	4285.641026	4015.384615	3870.256410	4241.025641	4195.897436	4494.358974	4497.435897	1720.000000	1691.000000	40.282000	0.000000	0.000000	0.000000	0.000000	1	1	0	0	0	0	0	0	0	0	0	0	0	0	0	0	0	0	0	1	0.000	0.000
87.000000	4419.487179	4607.179487	4442.051282	4214.358974	4575.897436	4588.205128	4556.923077	4288.205128	4017.948718	3869.230769	4240.000000	4191.282051	4494.358974	4496.923077	1722.000000	1691.000000	40.290000	0.000000	0.000000	0.000000	0.000000	1	1	0	0	0	0	0	0	0	0	0	0	0	0	0	0	0	0	0	1	0.000	0.000
88.000000	4421.025641	4608.717949	4444.615385	4215.384615	4575.384615	4589.743590	4551.794872	4285.128205	4018.461538	3867.692308	4242.051282	4192.307692	4494.871795	4500.000000	1720.000000	1691.000000	40.298000	0.000000	0.000000	0.000000	0.000000	1	1	0	0	0	0	0	0	0	0	0	0	0	0	0	0	0	0	0	1	0.000	0.000
89.000000	4422.564103	4608.205128	4443.076923	4214.358974	4574.871795	4589.743590	4555.384615	4286.153846	4015.384615	3868.717949	4243.589744	4190.769231	4494.871795	4498.974359	1721.000000	1691.000000	40.305000	0.000000	0.000000	0.000000	0.000000	1	1	0	0	0	0	0	0	0	0	0	0	0	0	0	0	0	0	0	1	0.000	0.000
90.000000	4424.102564	4608.717949	4445.641026	4215.384615	4575.384615	4589.230769	4554.871795	4284.102564	4015.384615	3869.230769	4240.512821	4192.307692	4493.846154	4497.948718	1720.000000	1690.000000	40.313000	0.000000	0.000000	0.000000	0.000000	1	1	0	0	0	0	0	0	0	0	0	0	0	0	0	0	0	0	0	1	0.000	0.000
91.000000	4422.051282	4606.666667	4443.076923	4215.384615	4574.871795	4590.769231	4553.846154	4280.512821	4016.923077	3869.230769	4240.000000	4190.769231	4492.307692	4497.948718	1721.000000	1692.000000	40.321000	0.000000	0.000000	0.000000	0.000000	1	1	0	0	0	0	0	0	0	0	0	0	0	0	0	0	0	0	0	1	0.000	0.000
92.000000	4422.564103	4607.692308	4444.102564	4213.846154	4574.358974	4592.307692	4553.846154	4281.538462	4015.384615	3867.692308	4241.538462	4190.256410	4495.384615	4497.948718	1721.000000	1691.000000	40.328000	0.000000	0.000000	0.000000	0.000000	1	1	0	0	0	0	0	0	0	0	0	0	0	0	0	0	0	0	0	1	0.000	0.000
93.000000	4423.589744	4607.692308	4446.666667	4214.871795	4575.897436	4590.256410	4554.871795	4282.564103	4016.923077	3866.666667	4242.051282	4189.743590	4497.435897	4498.461538	1720.000000	1691.000000	40.336000	0.000000	0.000000	0.000000	0.000000	1	1	0	0	0	0	0	0	0	0	0	0	0	0	0	0	0	0	0	1	0.000	0.000
94.000000	4420.512821	4605.128205	4445.128205	4216.410256	4574.358974	4592.307692	4556.410256	4284.615385	4018.974359	3868.717949	4242.564103	4190.256410	4495.897436	4500.000000	1721.000000	1691.000000	40.344000	0.000000	0.000000	0.000000	0.000000	1	1	0	0	0	0	0	0	0	0	0	0	0	0	0	0	0	0	0	1	0.000	0.000
95.000000	4421.025641	4606.153846	4446.153846	4215.897436	4573.333333	4592.307692	4554.358974	4285.641026	4017.435897	3870.769231	4245.128205	4194.871795	4494.871795	4499.487179	1721.000000	1691.000000	40.351000	0.000000	0.000000	0.000000	0.000000	1	1	0	0	0	0	0	0	0	0	0	0	0	0	0	0	0	0	0	1	0.000	0.000
96.000000	4420.000000	4608.205128	4442.564103	4214.358974	4576.923077	4589.230769	4555.897436	4286.153846	4016.410256	3870.256410	4244.102564	4189.743590	4494.358974	4497.948718	1721.000000	1691.000000	40.360000	0.000000	0.000000	0.000000	0.000000	1	1	0	0	0	0	0	0	0	0	0	0	0	0	0	0	0	0	0	1	0.000	0.000
97.000000	4421.538462	4610.256410	4446.153846	4214.358974	4575.897436	4587.179487	4553.333333	4282.564103	4015.384615	3868.717949	4241.538462	4192.307692	4495.384615	4499.487179	1721.000000	1690.000000	40.368000	0.000000	0.000000	0.000000	0.000000	1	1	0	0	0	0	0	0	0	0	0	0	0	0	0	0	0	0	0	1	0.000	0.000
98.000000	4418.461538	4606.666667	4442.051282	4213.846154	4572.307692	4589.743590	4555.897436	4284.102564	4016.410256	3869.230769	4241.025641	4192.307692	4495.897436	4497.435897	1722.000000	1691.000000	40.376000	0.000000	0.000000	0.000000	0.000000	1	1	0	0	0	0	0	0	0	0	0	0	0	0	0	0	0	0	0	1	0.000	0.000
99.000000	4420.512821	4608.717949	4448.205128	4215.897436	4574.358974	4591.282051	4552.307692	4283.589744	4017.435897	3869.743590	4244.615385	4196.410256	4494.871795	4496.923077	1720.000000	1691.000000	40.384000	0.000000	0.000000	0.000000	0.000000	1	1	0	0	0	0	0	0	0	0	0	0	0	0	0	0	0	0	0	1	0.000	0.000
100.000000	4420.000000	4607.179487	4441.025641	4213.846154	4578.461538	4591.282051	4554.871795	4283.589744	4017.435897	3870.769231	4243.589744	4188.205128	4492.307692	4498.974359	1721.000000	1692.000000	40.391000	0.000000	0.000000	0.000000	0.000000	1	1	0	0	0	0	0	0	0	0	0	0	0	0	0	0	0	0	0	1	0.000	0.000
101.000000	4423.076923	4607.692308	4445.128205	4213.333333	4579.487179	4590.256410	4553.333333	4280.512821	4015.384615	3870.769231	4240.512821	4193.333333	4494.358974	4498.974359	1721.000000	1690.000000	40.399000	0.000000	0.000000	0.000000	0.000000	1	1	0	0	0	0	0	0	0	0	0	0	0	0	0	0	0	0	0	1	0.000	0.000
102.000000	4419.487179	4604.615385	4438.974359	4211.794872	4580.000000	4590.769231	4555.897436	4282.051282	4016.923077	3869.743590	4238.974359	4191.282051	4494.871795	4495.897436	1721.000000	1691.000000	40.406000	0.000000	0.000000	0.000000	0.000000	1	1	0	0	0	0	0	0	0	0	0	0	0	0	0	0	0	0	0	1	0.000	0.000
103.000000	4421.538462	4609.230769	4444.615385	4216.923077	4577.435897	4590.256410	4552.307692	4285.128205	4017.948718	3868.205128	4240.512821	4192.307692	4494.871795	4499.487179	1721.000000	1690.000000	40.414000	0.000000	0.000000	0.000000	0.000000	1	1	0	0	0	0	0	0	0	0	0	0	0	0	0	0	0	0	0	1	0.000	0.000
104.000000	4420.000000	4607.179487	4443.076923	4216.923077	4573.846154	4590.256410	4554.358974	4286.666667	4016.410256	3868.717949	4241.538462	4190.256410	4495.384615	4499.487179	1720.000000	1691.000000	40.422000	0.000000	0.000000	0.000000	0.000000	1	1	0	0	0	0	0	0	0	0	0	0	0	0	0	0	0	0	0	1	0.000	0.000
105.000000	4422.051282	4610.769231	4446.666667	4215.897436	4574.358974	4589.230769	4553.333333	4283.589744	4016.923077	3870.256410	4243.589744	4193.333333	4495.897436	4499.487179	1722.000000	1690.000000	40.430000	0.000000	0.000000	0.000000	0.000000	1	1	0	0	0	0	0	0	0	0	0	0	0	0	0	0	0	0	0	1	0.000	0.000
106.000000	4421.538462	4609.230769	4443.076923	4214.358974	4574.871795	4588.205128	4556.410256	4284.615385	4016.410256	3868.717949	4245.128205	4192.307692	4494.358974	4499.487179	1720.000000	1691.000000	40.437000	0.000000	0.000000	0.000000	0.000000	1	1	0	0	0	0	0	0	0	0	0	0	0	0	0	0	0	0	0	1	0.000	0.000
107.000000	4423.589744	4608.717949	4445.641026	4215.897436	4575.384615	4589.743590	4555.897436	4288.205128	4013.846154	3867.179487	4242.564103	4193.333333	4495.897436	4499.487179	1722.000000	1691.000000	40.445000	0.000000	0.000000	0.000000	0.000000	1	1	0	0	0	0	0	0	0	0	0	0	0	0	0	0	0	0	0	1	0.000	0.000
108.000000	4422.051282	4608.205128	4446.153846	4215.384615	4576.923077	4591.282051	4557.948718	4286.153846	4015.384615	3868.717949	4242.051282	4191.794872	4495.384615	4498.461538	1721.000000	1691.000000	40.453000	0.000000	0.000000	0.000000	0.000000	1	1	0	0	0	0	0	0	0	0	0	0	0	0	0	0	0	0	0	1	0.000	0.000
109.000000	4420.000000	4608.717949	4442.051282	4216.410256	4575.897436	4590.256410	4558.461538	4282.051282	4019.487179	3869.743590	4241.538462	4189.743590	4495.384615	4498.461538	1721.000000	1692.000000	40.461000	0.000000	0.000000	0.000000	0.000000	1	1	0	0	0	0	0	0	0	0	0	0	0	0	0	0	0	0	0	1	0.000	0.000
110.000000	4421.538462	4609.230769	4442.564103	4217.435897	4574.871795	4590.769231	4555.384615	4285.128205	4017.435897	3868.205128	4242.051282	4191.282051	4495.897436	4497.948718	1720.000000	1691.000000	40.469000	0.000000	0.000000	0.000000	0.000000	1	1	0	0	0	0	0	0	0	0	0	0	0	0	0	0	0	0	0	1	0.000	0.000
111.000000	4422.051282	4607.692308	4444.102564	4214.358974	4577.948718	4591.794872	4554.871795	4288.205128	4015.384615	3869.743590	4242.564103	4189.743590	4494.871795	4497.948718	1721.000000	1691.000000	40.477000	0.000000	0.000000	0.000000	0.000000	1	1	0	0	0	0	0	0	0	0	0	0	0	0	0	0	0	0	0	1	0.000	0.000
112.000000	4423.076923	4608.717949	4450.256410	4214.871795	4577.948718	4587.692308	4553.846154	4282.564103	4016.410256	3870.769231	4241.538462	4192.307692	4493.333333	4497.948718	1721.000000	1690.000000	40.484000	0.000000	0.000000	0.000000	0.000000	1	1	0	0	0	0	0	0	0	0	0	0	0	0	0	0	0	0	0	1	0.000	0.000
113.000000	4420.000000	4608.205128	4443.589744	4216.923077	4576.410256	4590.256410	4557.435897	4282.051282	4016.410256	3869.230769	4241.025641	4189.743590	4493.333333	4496.923077	1721.000000	1691.000000	40.492000	0.000000	0.000000	0.000000	0.000000	1	1	0	0	0	0	0	0	0	0	0	0	0	0	0	0	0	0	0	1	0.000	0.000
114.000000	4422.564103	4610.256410	4445.641026	4216.923077	4577.435897	4594.358974	4552.820513	4283.589744	4017.435897	3868.717949	4245.128205	4192.820513	4493.846154	4497.948718	1722.000000	1690.000000	40.500000	0.000000	0.000000	0.000000	0.000000	1	1	0	0	0	0	0	0	0	0	0	0	0	0	0	0	0	0	0	1	0.000	0.000
115.000000	4420.512821	4607.179487	4442.051282	4213.333333	4576.410256	4591.794872	4554.358974	4284.615385	4018.461538	3870.769231	4245.128205	4191.282051	4493.846154	4498.461538	1720.000000	1692.000000	40.509000	0.000000	0.000000	0.000000	0.000000	1	1	0	0	0	0	0	0	0	0	0	0	0	0	0	0	0	0	0	1	0.000	0.000
116.000000	4421.538462	4609.743590	4446.153846	4212.820513	4574.871795	4589.743590	4553.333333	4282.051282	4015.897436	3869.230769	4243.076923	4195.897436	4495.897436	4500.000000	1721.000000	1691.000000	40.516000	0.000000	0.000000	0.000000	0.000000	1	1	0	0	0	0	0	0	0	0	0	0	0	0	0	0	0	0	0	1	0.000	0.000
117.000000	4418.974359	4606.153846	4441.025641	4211.794872	4577.435897	4592.307692	4557.435897	4286.666667	4015.897436	3867.692308	4243.589744	4188.717949	4495.384615	4498.461538	1720.000000	1690.000000	40.523000	0.000000	0.000000	0.000000	0.000000	1	1	0	0	0	0	0	0	0	0	0	0	0	0	0	0	0	0	0	1	0.000	0.000
118.000000	4421.025641	4607.692308	4446.666667	4216.410256	4577.948718	4589.743590	4554.358974	4286.153846	4018.974359	3868.717949	4243.076923	4194.358974	4495.384615	4497.948718	1721.000000	1691.000000	40.531000	0.000000	0.000000	0.000000	0.000000	1	1	0	0	0	0	0	0	0	0	0	0	0	0	0	0	0	0	0	1	0.000	0.000
119.000000	4418.974359	4607.179487	4440.512821	4214.871795	4577.435897	4587.179487	4556.923077	4284.102564	4017.435897	3869.743590	4240.512821	4193.846154	4494.871795	4497.435897	1721.000000	1691.000000	40.538000	0.000000	0.000000	0.000000	0.000000	1	1	0	0	0	0	0	0	0	0	0	0	0	0	0	0	0	0	0	1	0.000	0.000
120.000000	4422.051282	4610.256410	4444.615385	4213.333333	4577.948718	4589.743590	4554.358974	4283.589744	4014.871795	3869.230769	4242.564103	4193.846154	4494.871795	4500.512821	1721.000000	1691.000000	40.546000	0.000000	0.000000	0.000000	0.000000	1	1	0	0	0	0	0	0	0	0	0	0	0	0	0	0	0	0	0	1	0.000	0.000
121.000000	4421.025641	4606.666667	4440.512821	4212.307692	4576.923077	4592.307692	4555.897436	4286.153846	4016.410256	3867.692308	4243.589744	4190.769231	4494.358974	4497.948718	1720.000000	1690.000000	40.554000	0.000000	0.000000	0.000000	0.000000	1	1	0	0	0	0	0	0	0	0	0	0	0	0	0	0	0	0	0	1	0.000	0.000
122.000000	4423.076923	4608.717949	4445.128205	4215.384615	4574.358974	4590.256410	4553.846154	4284.615385	4016.923077	3869.230769	4244.102564	4194.358974	4497.435897	4495.897436	1721.000000	1691.000000	40.564000	0.000000	0.000000	0.000000	0.000000	1	1	0	0	0	0	0	0	0	0	0	0	0	0	0	0	0	0	0	1	0.000	0.000
123.000000	4421.025641	4606.153846	4447.179487	4213.846154	4574.358974	4588.717949	4553.846154	4282.051282	4016.410256	3870.769231	4245.641026	4193.333333	4498.461538	4495.384615	1721.000000	1690.000000	40.571000	0.000000	0.000000	0.000000	0.000000	1	1	0	0	0	0	0	0	0	0	0	0	0	0	0	0	0	0	0	1	0.000	0.000
124.000000	4420.000000	4604.102564	4446.153846	4215.384615	4573.333333	4591.282051	4553.333333	4285.128205	4018.974359	3869.230769	4243.076923	4192.307692	4497.435897	4497.435897	1722.000000	1690.000000	40.579000	0.000000	0.000000	0.000000	0.000000	1	1	0	0	0	0	0	0	0	0	0	0	0	0	0	0	0	0	0	1	0.000	0.000
125.000000	4421.538462	4607.692308	4443.589744	4215.897436	4572.820513	4593.333333	4555.384615	4287.179487	4018.974359	3869.230769	4241.025641	4193.846154	4496.410256	4499.487179	1721.000000	1690.000000	40.587000	0.000000	0.000000	0.000000	0.000000	1	1	0	0	0	0	0	0	0	0	0	0	0	0	0	0	0	0	0	1	0.000	0.000
126.000000	4421.025641	4609.743590	4444.102564	4214.871795	4575.897436	4592.307692	4557.435897	4286.153846	4015.384615	3869.230769	4241.025641	4191.282051	4496.923077	4497.948718	1721.000000	1691.000000	40.595000	0.000000	0.000000	0.000000	0.000000	1	1	0	0	0	0	0	0	0	0	0	0	0	0	0	0	0	0	0	1	0.000	0.000
127.000000	4422.564103	4609.230769	4450.256410	4216.923077	4575.384615	4589.743590	4553.846154	4284.615385	4014.358974	3870.256410	4243.076923	4195.384615	4496.410256	4495.897436	1720.000000	1690.000000	40.603000	0.000000	0.000000	0.000000	0.000000	1	1	0	0	0	0	0	0	0	0	0	0	0	0	0	0	0	0	0	1	0.000	0.000
128.000000	4422.564103	4607.692308	4444.102564	4214.358974	4575.897436	4590.256410	4553.846154	4285.128205	4016.923077	3872.307692	4241.538462	4194.871795	4496.410256	4496.923077	1721.000000	1691.000000	40.610000	0.000000	0.000000	0.000000	0.000000	1	1	0	0	0	0	0	0	0	0	0	0	0	0	0	0	0	0	0	1	0.000	0.000
0.000000	4424.102564	4609.743590	4444.102564	4213.333333	4576.410256	4591.282051	4555.384615	4287.179487	4016.923077	3870.769231	4242.051282	4192.307692	4496.410256	4500.000000	1721.000000	1690.000000	40.618000	0.000000	0.000000	0.000000	0.000000	1	1	0	0	0	0	0	0	0	0	0	0	0	0	0	0	0	0	0	1	0.000	0.000
1.000000	4421.538462	4606.153846	4443.076923	4214.358974	4576.410256	4590.256410	4558.974359	4288.205128	4015.897436	3868.205128	4243.076923	4188.717949	4494.871795	4498.461538	1721.000000	1691.000000	40.626000	0.000000	0.000000	0.000000	0.000000	1	1	0	0	0	0	0	0	0	0	0	0	0	0	0	0	0	0	0	1	0.000	0.000
2.000000	4424.615385	4610.769231	4452.820513	4217.435897	4574.358974	4585.641026	4551.282051	4282.051282	4015.897436	3869.743590	4242.564103	4199.487179	4494.871795	4497.948718	1720.000000	1691.000000	40.634000	0.000000	0.000000	0.000000	0.000000	1	1	0	0	0	0	0	0	0	0	0	0	0	0	0	0	0	0	0	1	0.000	0.000
3.000000	4421.025641	4610.769231	4445.128205	4213.846154	4574.358974	4588.717949	4556.923077	4282.051282	4015.384615	3870.769231	4241.538462	4194.358974	4495.897436	4498.461538	1720.000000	1691.000000	40.642000	0.000000	0.000000	0.000000	0.000000	1	1	0	0	0	0	0	0	0	0	0	0	0	0	0	0	0	0	0	1	0.000	0.000
4.000000	4421.538462	4608.717949	4444.102564	4214.871795	4574.871795	4592.307692	4555.384615	4284.615385	4013.846154	3868.205128	4243.589744	4191.794872	4496.410256	4500.512821	1722.000000	1690.000000	40.650000	0.000000	0.000000	0.000000	0.000000	1	1	0	0	0	0	0	0	0	0	0	0	0	0	0	0	0	0	0	1	0.000	0.000
5.000000	4420.000000	4604.615385	4439.487179	4215.897436	4574.871795	4591.794872	4554.871795	4286.666667	4014.358974	3868.205128	4243.589744	4189.230769	4493.846154	4498.461538	1720.000000	1691.000000	40.657000	0.000000	0.000000	0.000000	0.000000	1	1	0	0	0	0	0	0	0	0	0	0	0	0	0	0	0	0	0	1	0.000	0.000
6.000000	4423.076923	4611.282051	4445.641026	4215.384615	4574.871795	4588.717949	4554.871795	4283.589744	4016.410256	3868.717949	4241.025641	4195.384615	4494.871795	4498.461538	1722.000000	1690.000000	40.665000	0.000000	0.000000	0.000000	0.000000	1	1	0	0	0	0	0	0	0	0	0	0	0	0	0	0	0	0	0	1	0.000	0.000
7.000000	4420.000000	4608.205128	4443.076923	4212.820513	4575.897436	4589.743590	4558.974359	4286.153846	4017.435897	3870.256410	4242.564103	4191.794872	4495.897436	4500.512821	1720.000000	1690.000000	40.673000	0.000000	0.000000	0.000000	0.000000	1	1	0	0	0	0	0	0	0	0	0	0	0	0	0	0	0	0	0	1	0.000	0.000
8.000000	4420.512821	4606.153846	4446.666667	4216.923077	4577.948718	4588.717949	4553.333333	4284.102564	4017.435897	3872.820513	4244.102564	4193.846154	4496.410256	4502.564103	1721.000000	1692.000000	40.681000	0.000000	0.000000	0.000000	0.000000	1	1	0	0	0	0	0	0	0	0	0	0	0	0	0	0	0	0	0	1	0.000	0.000
9.000000	4420.512821	4605.641026	4444.102564	4214.871795	4576.923077	4587.179487	4553.333333	4282.051282	4018.974359	3871.282051	4241.025641	4191.794872	4496.410256	4496.410256	1721.000000	1691.000000	40.689000	0.000000	0.000000	0.000000	0.000000	1	1	0	0	0	0	0	0	0	0	0	0	0	0	0	0	0	0	0	1	0.000	0.000
10.000000	4422.051282	4609.230769	4445.641026	4213.333333	4574.358974	4589.743590	4553.846154	4284.615385	4018.974359	3867.692308	4242.051282	4193.846154	4495.897436	4496.410256	1721.000000	1690.000000	40.696000	0.000000	0.000000	0.000000	0.000000	1	1	0	0	0	0	0	0	0	0	0	0	0	0	0	0	0	0	0	1	0.000	0.000
11.000000	4420.000000	4606.153846	4440.512821	4215.384615	4574.871795	4590.769231	4552.820513	4284.615385	4017.948718	3869.743590	4245.641026	4194.358974	4494.358974	4498.461538	1720.000000	1691.000000	40.704000	0.000000	0.000000	0.000000	0.000000	1	1	0	0	0	0	0	0	0	0	0	0	0	0	0	0	0	0	0	1	0.000	0.000
12.000000	4421.538462	4607.179487	4441.025641	4218.461538	4575.384615	4589.743590	4552.820513	4282.564103	4017.948718	3871.794872	4244.615385	4191.794872	4495.384615	4498.461538	1721.000000	1691.000000	40.712000	0.000000	0.000000	0.000000	0.000000	1	1	0	0	0	0	0	0	0	0	0	0	0	0	0	0	0	0	0	1	0.000	0.000
13.000000	4421.538462	4607.179487	4448.717949	4216.410256	4575.384615	4589.230769	4554.358974	4283.076923	4017.435897	3869.743590	4243.076923	4193.333333	4495.897436	4498.461538	1721.000000	1690.000000	40.720000	0.000000	0.000000	0.000000	0.000000	1	1	0	0	0	0	0	0	0	0	0	0	0	0	0	0	0	0	0	1	0.000	0.000
14.000000	4418.974359	4606.666667	4445.641026	4213.333333	4576.410256	4591.282051	4555.384615	4286.666667	4016.923077	3869.230769	4241.538462	4191.794872	4494.358974	4497.435897	1721.000000	1691.000000	40.728000	0.000000	0.000000	0.000000	0.000000	1	1	0	0	0	0	0	0	0	0	0	0	0	0	0	0	0	0	0	1	0.000	0.000
15.000000	4422.564103	4609.743590	4444.102564	4214.871795	4576.923077	4590.256410	4555.384615	4285.641026	4014.871795	3870.769231	4242.564103	4191.794872	4495.384615	4496.410256	1722.000000	1691.000000	40.736000	0.000000	0.000000	0.000000	0.000000	1	1	0	0	0	0	0	0	0	0	0	0	0	0	0	0	0	0	0	1	0.000	0.000
16.000000	4420.512821	4607.692308	4442.051282	4213.846154	4578.461538	4589.743590	4555.897436	4285.641026	4014.871795	3870.256410	4242.564103	4188.717949	4494.871795	4497.948718	1720.000000	1691.000000	40.743000	0.000000	0.000000	0.000000	0.000000	1	1	0	0	0	0	0	0	0	0	0	0	0	0	0	0	0	0	0	1	0.000	0.000
17.000000	4421.538462	4606.666667	4450.769231	4213.846154	4576.923077	4590.769231	4555.384615	4285.128205	4016.923077	3870.769231	4242.051282	4193.846154	4493.333333	4500.000000	1722.000000	1691.000000	40.751000	0.000000	0.000000	0.000000	0.000000	1	1	0	0	0	0	0	0	0	0	0	0	0	0	0	0	0	0	0	1	0.000	0.000
18.000000	4421.025641	4604.102564	4441.538462	4211.794872	4575.384615	4591.282051	4561.025641	4285.128205	4015.384615	3871.794872	4241.025641	4190.256410	4492.307692	4497.435897	1720.000000	1690.000000	40.759000	0.000000	0.000000	0.000000	0.000000	1	1	0	0	0	0	0	0	0	0	0	0	0	0	0	0	0	0	0	1	0.000	0.000
19.000000	4422.564103	4609.230769	4442.051282	4214.358974	4576.923077	4588.717949	4554.358974	4284.615385	4014.358974	3869.230769	4241.538462	4193.333333	4494.358974	4500.000000	1721.000000	1691.000000	40.767000	0.000000	0.000000	0.000000	0.000000	1	1	0	0	0	0	0	0	0	0	0	0	0	0	0	0	0	0	0	1	0.000	0.000
20.000000	4417.948718	4605.641026	4439.487179	4214.871795	4574.871795	4586.666667	4554.871795	4286.153846	4016.923077	3868.205128	4241.538462	4190.256410	4496.410256	4499.487179	1721.000000	1689.000000	40.775000	0.000000	0.000000	0.000000	0.000000	1	1	0	0	0	0	0	0	0	0	0	0	0	0	0	0	0	0	0	1	0.000	0.000
21.000000	4424.615385	4608.205128	4448.205128	4215.897436	4571.794872	4585.641026	4553.846154	4282.051282	4016.410256	3868.717949	4242.051282	4195.384615	4496.923077	4497.435897	1721.000000	1691.000000	40.781000	0.000000	0.000000	0.000000	0.000000	1	1	0	0	0	0	0	0	0	0	0	0	0	0	0	0	0	0	0	1	0.000	0.000
22.000000	4421.538462	4608.717949	4444.615385	4214.871795	4574.871795	4588.717949	4558.461538	4283.589744	4015.384615	3869.230769	4242.051282	4192.307692	4494.871795	4496.923077	1721.000000	1690.000000	40.790000	0.000000	0.000000	0.000000	0.000000	1	1	0	0	0	0	0	0	0	0	0	0	0	0	0	0	0	0	0	1	0.000	0.000
23.000000	4418.974359	4611.282051	4449.230769	4216.410256	4577.948718	4590.256410	4554.358974	4284.615385	4016.410256	3870.256410	4241.538462	4193.846154	4495.384615	4497.435897	1721.000000	1691.000000	40.798000	0.000000	0.000000	0.000000	0.000000	1	1	0	0	0	0	0	0	0	0	0	0	0	0	0	0	0	0	0	1	0.000	0.000
24.000000	4420.000000	4607.179487	4444.102564	4215.384615	4574.358974	4590.769231	4556.410256	4285.128205	4017.948718	3869.230769	4244.102564	4191.282051	4495.384615	4495.897436	1721.000000	1690.000000	40.806000	0.000000	0.000000	0.000000	0.000000	1	1	0	0	0	0	0	0	0	0	0	0	0	0	0	0	0	0	0	1	0.000	0.000
25.000000	4423.076923	4606.666667	4445.128205	4214.358974	4572.307692	4589.743590	4554.871795	4284.102564	4017.435897	3867.179487	4244.615385	4195.384615	4493.846154	4497.948718	1721.000000	1692.000000	40.814000	0.000000	0.000000	0.000000	0.000000	1	1	0	0	0	0	0	0	0	0	0	0	0	0	0	0	0	0	0	1	0.000	0.000
26.000000	4420.000000	4605.128205	4444.615385	4214.358974	4574.358974	4590.256410	4552.820513	4284.615385	4017.948718	3869.230769	4241.025641	4193.333333	4493.846154	4497.435897	1721.000000	1690.000000	40.822000	0.000000	0.000000	0.000000	0.000000	1	1	0	0	0	0	0	0	0	0	0	0	0	0	0	0	0	0	0	1	0.000	0.000
27.000000	4422.051282	4606.666667	4446.666667	4216.923077	4575.897436	4591.794872	4551.794872	4285.128205	4018.461538	3870.769231	4240.512821	4193.333333	4498.974359	4497.948718	1719.000000	1691.000000	40.829000	0.000000	0.000000	0.000000	0.000000	1	1	0	0	0	0	0	0	0	0	0	0	0	0	0	0	0	0	0	1	0.000	0.000
28.000000	4421.538462	4606.153846	4445.128205	4215.897436	4576.410256	4591.282051	4556.410256	4283.589744	4016.410256	3869.230769	4245.128205	4192.820513	4498.461538	4498.974359	1722.000000	1691.000000	40.837000	0.000000	0.000000	0.000000	0.000000	1	1	0	0	0	0	0	0	0	0	0	0	0	0	0	0	0	0	0	1	0.000	0.000
29.000000	4420.000000	4606.666667	4444.615385	4214.871795	4576.410256	4591.794872	4559.487179	4284.102564	4014.358974	3868.717949	4244.615385	4189.230769	4494.358974	4498.974359	1720.000000	1691.000000	40.845000	0.000000	0.000000	0.000000	0.000000	1	1	0	0	0	0	0	0	0	0	0	0	0	0	0	0	0	0	0	1	0.000	0.000
30.000000	4421.538462	4608.205128	4446.153846	4215.384615	4575.384615	4590.256410	4555.897436	4283.589744	4014.358974	3870.769231	4241.025641	4191.282051	4494.358974	4498.974359	1720.000000	1691.000000	40.853000	0.000000	0.000000	0.000000	0.000000	1	1	0	0	0	0	0	0	0	0	0	0	0	0	0	0	0	0	0	1	0.000	0.000
31.000000	4420.512821	4608.205128	4443.076923	4215.384615	4575.897436	4588.717949	4556.923077	4285.641026	4015.897436	3871.282051	4241.538462	4189.743590	4495.897436	4497.948718	1721.000000	1690.000000	40.861000	0.000000	0.000000	0.000000	0.000000	1	1	0	0	0	0	0	0	0	0	0	0	0	0	0	0	0	0	0	1	0.000	0.000
32.000000	4423.076923	4606.666667	4448.717949	4215.384615	4575.384615	4588.205128	4556.923077	4283.076923	4017.435897	3868.205128	4243.589744	4194.358974	4495.384615	4498.461538	1720.000000	1691.000000	40.867000	0.000000	0.000000	0.000000	0.000000	1	1	0	0	0	0	0	0	0	0	0	0	0	0	0	0	0	0	0	1	0.000	0.000
33.000000	4421.025641	4604.615385	4443.589744	4211.794872	4573.333333	4589.743590	4558.461538	4283.076923	4016.923077	3868.205128	4240.512821	4192.820513	4495.384615	4498.974359	1721.000000	1690.000000	40.876000	0.000000	0.000000	0.000000	0.000000	1	1	0	0	0	0	0	0	0	0	0	0	0	0	0	0	0	0	0	1	0.000	0.000
34.000000	4420.000000	4609.230769	4446.666667	4213.846154	4573.846154	4588.205128	4553.333333	4284.102564	4014.871795	3869.743590	4241.025641	4192.820513	4497.435897	4500.000000	1720.000000	1691.000000	40.884000	0.000000	0.000000	0.000000	0.000000	1	1	0	0	0	0	0	0	0	0	0	0	0	0	0	0	0	0	0	1	0.000	0.000
35.000000	4415.897436	4607.179487	4440.512821	4215.897436	4577.948718	4587.692308	4553.333333	4284.615385	4016.410256	3868.717949	4244.615385	4186.153846	4496.923077	4496.923077	1721.000000	1691.000000	40.892000	0.000000	0.000000	0.000000	0.000000	1	1	0	0	0	0	0	0	0	0	0	0	0	0	0	0	0	0	0	1	0.000	0.000
36.000000	4422.564103	4610.769231	4447.179487	4216.410256	4575.897436	4589.230769	4549.743590	4281.025641	4018.461538	3869.230769	4244.615385	4192.820513	4496.410256	4497.435897	1720.000000	1691.000000	40.900000	0.000000	0.000000	0.000000	0.000000	1	1	0	0	0	0	0	0	0	0	0	0	0	0	0	0	0	0	0	1	0.000	0.000
37.000000	4422.051282	4606.153846	4443.589744	4210.769231	4575.384615	4590.769231	4554.871795	4282.051282	4015.897436	3870.769231	4241.025641	4192.307692	4495.897436	4496.923077	1721.000000	1691.000000	40.907000	0.000000	0.000000	0.000000	0.000000	1	1	0	0	0	0	0	0	0	0	0	0	0	0	0	0	0	0	0	1	0.000	0.000
38.000000	4422.051282	4607.179487	4445.641026	4212.820513	4578.461538	4589.230769	4553.333333	4284.615385	4013.846154	3870.256410	4241.538462	4193.333333	4498.461538	4498.974359	1720.000000	1691.000000	40.915000	0.000000	0.000000	0.000000	0.000000	1	1	0	0	0	0	0	0	0	0	0	0	0	0	0	0	0	0	0	1	0.000	0.000
39.000000	4417.948718	4605.641026	4438.974359	4213.846154	4577.435897	4588.717949	4556.923077	4287.179487	4015.897436	3869.230769	4242.564103	4191.282051	4498.974359	4498.974359	1721.000000	1690.000000	40.921000	0.000000	0.000000	0.000000	0.000000	1	1	0	0	0	0	0	0	0	0	0	0	0	0	0	0	0	0	0	1	0.000	0.000
40.000000	4422.051282	4609.230769	4445.641026	4214.358974	4573.846154	4590.256410	4554.358974	4285.128205	4017.435897	3869.743590	4242.051282	4195.384615	4495.897436	4498.974359	1720.000000	1690.000000	40.929000	0.000000	0.000000	0.000000	0.000000	1	1	0	0	0	0	0	0	0	0	0	0	0	0	0	0	0	0	0	1	0.000	0.000
41.000000	4422.564103	4606.666667	4445.641026	4214.358974	4574.358974	4591.282051	4556.410256	4287.179487	4016.410256	3870.769231	4241.538462	4190.769231	4494.871795	4497.948718	1721.000000	1691.000000	40.937000	0.000000	0.000000	0.000000	0.000000	1	1	0	0	0	0	0	0	0	0	0	0	0	0	0	0	0	0	0	1	0.000	0.000
42.000000	4420.000000	4608.717949	4447.179487	4217.435897	4576.410256	4590.769231	4554.871795	4285.641026	4015.384615	3870.769231	4242.051282	4190.769231	4497.948718	4498.461538	1721.000000	1690.000000	40.945000	0.000000	0.000000	0.000000	0.000000	1	1	0	0	0	0	0	0	0	0	0	0	0	0	0	0	0	0	0	1	0.000	0.000
43.000000	4417.948718	4610.256410	4446.153846	4215.897436	4576.923077	4590.769231	4554.871795	4282.564103	4016.410256	3869.230769	4242.051282	4192.820513	4495.384615	4496.410256	1720.000000	1691.000000	40.954000	0.000000	0.000000	0.000000	0.000000	1	1	0	0	0	0	0	0	0	0	0	0	0	0	0	0	0	0	0	1	0.000	0.000
44.000000	4420.512821	4609.743590	4445.128205	4214.871795	4576.923077	4592.307692	4554.871795	4282.051282	4017.435897	3869.743590	4242.564103	4193.846154	4493.333333	4496.410256	1721.000000	1690.000000	40.962000	0.000000	0.000000	0.000000	0.000000	1	1	0	0	0	0	0	0	0	0	0	0	0	0	0	0	0	0	0	1	0.000	0.000
45.000000	4421.025641	4608.205128	4445.128205	4215.384615	4576.410256	4591.282051	4553.333333	4284.615385	4015.897436	3871.794872	4243.076923	4192.307692	4496.410256	4497.948718	1721.000000	1691.000000	40.970000	0.000000	0.000000	0.000000	0.000000	1	1	0	0	0	0	0	0	0	0	0	0	0	0	0	0	0	0	0	1	0.000	0.000
46.000000	4418.461538	4609.230769	4444.102564	4214.871795	4575.897436	4590.256410	4554.358974	4287.179487	4016.923077	3870.256410	4243.589744	4191.794872	4497.948718	4496.923077	1721.000000	1691.000000	40.978000	0.000000	0.000000	0.000000	0.000000	1	1	0	0	0	0	0	0	0	0	0	0	0	0	0	0	0	0	0	1	0.000	0.000
47.000000	4421.538462	4609.743590	4444.615385	4214.358974	4574.871795	4587.692308	4552.307692	4283.589744	4016.410256	3869.230769	4244.615385	4195.897436	4495.384615	4495.897436	1720.000000	1691.000000	40.986000	0.000000	0.000000	0.000000	0.000000	1	1	0	0	0	0	0	0	0	0	0	0	0	0	0	0	0	0	0	1	0.000	0.000
48.000000	4421.025641	4604.615385	4440.512821	4215.384615	4573.846154	4587.692308	4554.358974	4284.615385	4014.871795	3870.256410	4241.538462	4189.743590	4494.358974	4495.384615	1721.000000	1691.000000	40.994000	0.000000	0.000000	0.000000	0.000000	1	1	0	0	0	0	0	0	0	0	0	0	0	0	0	0	0	0	0	1	0.000	0.000
49.000000	4420.000000	4606.153846	4446.666667	4216.410256	4573.846154	4588.205128	4554.871795	4284.615385	4015.384615	3868.717949	4240.512821	4191.794872	4495.897436	4497.435897	1720.000000	1690.000000	41.001000	0.000000	0.000000	0.000000	0.000000	1	1	0	0	0	0	0	0	0	0	0	0	0	0	0	0	0	0	0	1	0.000	0.000
50.000000	4417.948718	4607.692308	4441.538462	4212.820513	4574.358974	4589.743590	4556.923077	4286.153846	4017.948718	3869.230769	4242.564103	4190.256410	4495.897436	4499.487179	1721.000000	1690.000000	41.009000	0.000000	0.000000	0.000000	0.000000	1	1	0	0	0	0	0	0	0	0	0	0	0	0	0	0	0	0	0	1	0.000	0.000
51.000000	4423.076923	4608.205128	4445.641026	4215.384615	4574.358974	4587.692308	4553.333333	4283.589744	4017.435897	3870.256410	4244.102564	4195.384615	4495.897436	4500.512821	1720.000000	1691.000000	41.016000	0.000000	0.000000	0.000000	0.000000	1	1	0	0	0	0	0	0	0	0	0	0	0	0	0	0	0	0	0	1	0.000	0.000
52.000000	4421.025641	4605.128205	4440.512821	4215.897436	4575.897436	4587.179487	4556.923077	4282.564103	4015.897436	3870.256410	4242.051282	4190.769231	4495.897436	4496.923077	1721.000000	1690.000000	41.024000	0.000000	0.000000	0.000000	0.000000	1	1	0	0	0	0	0	0	0	0	0	0	0	0	0	0	0	0	0	1	0.000	0.000
53.000000	4421.538462	4612.307692	4447.692308	4216.923077	4576.410256	4588.717949	4553.846154	4282.564103	4014.358974	3868.717949	4244.615385	4195.384615	4496.923077	4497.948718	1721.000000	1691.000000	41.032000	0.000000	0.000000	0.000000	0.000000	1	1	0	0	0	0	0	0	0	0	0	0	0	0	0	0	0	0	0	1	0.000	0.000
54.000000	4417.948718	4608.717949	4443.589744	4213.333333	4576.410256	4590.256410	4554.358974	4286.153846	4016.410256	3869.230769	4245.128205	4192.307692	4493.846154	4497.948718	1721.000000	1691.000000	41.039000	0.000000	0.000000	0.000000	0.000000	1	1	0	0	0	0	0	0	0	0	0	0	0	0	0	0	0	0	0	1	0.000	0.000
55.000000	4422.564103	4607.179487	4447.179487	4215.897436	4575.384615	4589.743590	4551.282051	4287.179487	4018.461538	3870.769231	4242.051282	4193.846154	4494.871795	4498.974359	1720.000000	1692.000000	41.046000	0.000000	0.000000	0.000000	0.000000	1	1	0	0	0	0	0	0	0	0	0	0	0	0	0	0	0	0	0	1	0.000	0.000
56.000000	4422.564103	4605.641026	4442.564103	4214.358974	4575.897436	4590.769231	4555.897436	4286.153846	4016.923077	3870.256410	4241.025641	4192.307692	4496.923077	4497.948718	1721.000000	1691.000000	41.054000	0.000000	0.000000	0.000000	0.000000	1	1	0	0	0	0	0	0	0	0	0	0	0	0	0	0	0	0	0	1	0.000	0.000
57.000000	4421.025641	4609.230769	4445.641026	4215.384615	4573.333333	4590.256410	4552.820513	4284.615385	4015.384615	3868.205128	4243.589744	4195.384615	4494.871795	4498.461538	1720.000000	1691.000000	41.062000	0.000000	0.000000	0.000000	0.000000	1	1	0	0	0	0	0	0	0	0	0	0	0	0	0	0	0	0	0	1	0.000	0.000
58.000000	4417.948718	4606.153846	4444.102564	4214.358974	4572.820513	4588.205128	4555.384615	4286.153846	4015.384615	3868.717949	4245.641026	4191.794872	4494.358974	4497.435897	1721.000000	1691.000000	41.070000	0.000000	0.000000	0.000000	0.000000	1	1	0	0	0	0	0	0	0	0	0	0	0	0	0	0	0	0	0	1	0.000	0.000
59.000000	4421.538462	4606.153846	4445.128205	4214.358974	4579.487179	4586.153846	4554.871795	4286.666667	4016.410256	3870.769231	4242.051282	4190.256410	4497.435897	4498.974359	1720.000000	1690.000000	41.080000	0.000000	0.000000	0.000000	0.000000	1	1	0	0	0	0	0	0	0	0	0	0	0	0	0	0	0	0	0	1	0.000	0.000
60.000000	4421.025641	4607.179487	4442.564103	4214.871795	4582.051282	4587.179487	4554.871795	4287.179487	4016.923077	3870.769231	4240.512821	4191.282051	4496.410256	4499.487179	1721.000000	1691.000000	41.086000	0.000000	0.000000	0.000000	0.000000	1	1	0	0	0	0	0	0	0	0	0	0	0	0	0	0	0	0	0	1	0.000	0.000
61.000000	4420.512821	4606.666667	4441.025641	4214.358974	4577.435897	4588.717949	4554.358974	4285.128205	4016.923077	3870.769231	4241.538462	4192.820513	4494.871795	4497.435897	1721.000000	1690.000000	41.095000	0.000000	0.000000	0.000000	0.000000	1	1	0	0	0	0	0	0	0	0	0	0	0	0	0	0	0	0	0	1	0.000	0.000
62.000000	4422.564103	4607.692308	4444.102564	4213.846154	4574.358974	4585.128205	4551.794872	4282.564103	4016.923077	3870.256410	4243.589744	4192.820513	4496.923077	4497.948718	1720.000000	1691.000000	41.102000	0.000000	0.000000	0.000000	0.000000	1	1	0	0	0	0	0	0	0	0	0	0	0	0	0	0	0	0	0	1	0.000	0.000
63.000000	4419.487179	4607.692308	4443.076923	4213.333333	4576.410256	4586.153846	4554.871795	4284.102564	4017.435897	3870.256410	4242.051282	4190.769231	4495.897436	4499.487179	1721.000000	1691.000000	41.110000	0.000000	0.000000	0.000000	0.000000	1	1	0	0	0	0	0	0	0	0	0	0	0	0	0	0	0	0	0	1	0.000	0.000
64.000000	4420.512821	4607.179487	4446.666667	4213.846154	4577.435897	4590.769231	4553.333333	4283.076923	4016.410256	3870.769231	4241.025641	4194.358974	4494.871795	4498.974359	1721.000000	1691.000000	41.118000	0.000000	0.000000	0.000000	0.000000	1	1	0	0	0	0	0	0	0	0	0	0	0	0	0	0	0	0	0	1	0.000	0.000
65.000000	4421.025641	4605.128205	4442.051282	4212.307692	4578.461538	4589.743590	4552.820513	4284.615385	4014.871795	3869.743590	4242.564103	4190.769231	4495.897436	4497.435897	1721.000000	1691.000000	41.125000	0.000000	0.000000	0.000000	0.000000	1	1	0	0	0	0	0	0	0	0	0	0	0	0	0	0	0	0	0	1	0.000	0.000
66.000000	4422.564103	4609.230769	4446.666667	4213.333333	4578.461538	4586.666667	4551.282051	4284.102564	4015.897436	3868.717949	4244.102564	4192.307692	4496.923077	4499.487179	1720.000000	1691.000000	41.134000	0.000000	0.000000	0.000000	0.000000	1	1	0	0	0	0	0	0	0	0	0	0	0	0	0	0	0	0	0	1	0.000	0.000
67.000000	4418.974359	4608.205128	4442.051282	4212.820513	4575.384615	4591.282051	4555.384615	4286.666667	4017.948718	3871.282051	4241.538462	4189.743590	4494.358974	4499.487179	1722.000000	1690.000000	41.142000	0.000000	0.000000	0.000000	0.000000	1	1	0	0	0	0	0	0	0	0	0	0	0	0	0	0	0	0	0	1	0.000	0.000
68.000000	4421.538462	4609.743590	4447.179487	4215.384615	4573.846154	4592.307692	4552.820513	4283.589744	4016.410256	3871.794872	4242.051282	4195.897436	4492.820513	4499.487179	1720.000000	1690.000000	41.149000	0.000000	0.000000	0.000000	0.000000	1	1	0	0	0	0	0	0	0	0	0	0	0	0	0	0	0	0	0	1	0.000	0.000
69.000000	4420.512821	4606.666667	4442.564103	4215.384615	4576.410256	4589.230769	4556.923077	4283.076923	4014.871795	3870.769231	4242.564103	4190.769231	4492.820513	4497.948718	1721.000000	1690.000000	41.157000	0.000000	0.000000	0.000000	0.000000	1	1	0	0	0	0	0	0	0	0	0	0	0	0	0	0	0	0	0	1	0.000	0.000
70.000000	4423.076923	4607.692308	4448.205128	4215.897436	4577.435897	4589.230769	4555.897436	4283.076923	4015.384615	3870.256410	4240.512821	4194.358974	4494.358974	4497.435897	1721.000000	1690.000000	41.166000	0.000000	0.000000	0.000000	0.000000	1	1	0	0	0	0	0	0	0	0	0	0	0	0	0	0	0	0	0	1	0.000	0.000
71.000000	4420.000000	4605.641026	4442.051282	4213.846154	4575.384615	4590.769231	4555.384615	4285.128205	4016.410256	3869.743590	4238.461538	4190.769231	4494.871795	4496.923077	1721.000000	1692.000000	41.173000	0.000000	0.000000	0.000000	0.000000	1	1	0	0	0	0	0	0	0	0	0	0	0	0	0	0	0	0	0	1	0.000	0.000
72.000000	4424.102564	4608.717949	4447.692308	4214.871795	4573.846154	4589.743590	4552.820513	4283.076923	4017.948718	3867.179487	4241.025641	4192.307692	4495.897436	4498.974359	1721.000000	1690.000000	41.181000	0.000000	0.000000	0.000000	0.000000	1	1	0	0	0	0	0	0	0	0	0	0	0	0	0	0	0	0	0	1	0.000	0.000
73.000000	4423.589744	4604.102564	4445.641026	4213.333333	4575.897436	4589.230769	4557.435897	4281.538462	4017.948718	3868.717949	4244.102564	4191.282051	4496.410256	4497.435897	1720.000000	1692.000000	41.189000	0.000000	0.000000	0.000000	0.000000	1	1	0	0	0	0	0	0	0	0	0	0	0	0	0	0	0	0	0	1	0.000	0.000
74.000000	4422.564103	4606.666667	4445.128205	4216.923077	4577.435897	4589.230769	4554.358974	4283.076923	4015.897436	3871.282051	4244.615385	4193.846154	4497.435897	4496.923077	1721.000000	1691.000000	41.196000	0.000000	0.000000	0.000000	0.000000	1	1	0	0	0	0	0	0	0	0	0	0	0	0	0	0	0	0	0	1	0.000	0.000
75.000000	4420.512821	4608.717949	4442.051282	4218.461538	4575.384615	4590.256410	4556.410256	4285.128205	4015.384615	3870.769231	4242.564103	4192.820513	4496.923077	4495.897436	1720.000000	1691.000000	41.205000	0.000000	0.000000	0.000000	0.000000	1	1	0	0	0	0	0	0	0	0	0	0	0	0	0	0	0	0	0	1	0.000	0.000
76.000000	4420.512821	4609.230769	4444.102564	4215.897436	4575.897436	4591.282051	4556.923077	4285.128205	4017.435897	3867.692308	4241.025641	4190.769231	4495.384615	4497.435897	1721.000000	1691.000000	41.213000	0.000000	0.000000	0.000000	0.000000	1	1	0	0	0	0	0	0	0	0	0	0	0	0	0	0	0	0	0	1	0.000	0.000
77.000000	4419.487179	4608.717949	4445.128205	4212.820513	4578.461538	4590.256410	4554.871795	4285.641026	4018.461538	3868.205128	4242.564103	4191.794872	4494.358974	4500.000000	1721.000000	1690.000000	41.220000	0.000000	0.000000	0.000000	0.000000	1	1	0	0	0	0	0	0	0	0	0	0	0	0	0	0	0	0	0	1	0.000	0.000
78.000000	4420.000000	4608.717949	4442.564103	4214.358974	4575.384615	4590.769231	4552.307692	4285.641026	4017.435897	3869.230769	4242.564103	4190.769231	4496.410256	4498.974359	1721.000000	1691.000000	41.228000	0.000000	0.000000	0.000000	0.000000	1	1	0	0	0	0	0	0	0	0	0	0	0	0	0	0	0	0	0	1	0.000	0.000
79.000000	4424.615385	4609.743590	4444.102564	4216.410256	4572.820513	4589.230769	4552.820513	4285.641026	4016.410256	3868.205128	4241.025641	4190.769231	4496.410256	4497.948718	1720.000000	1691.000000	41.236000	0.000000	0.000000	0.000000	0.000000	1	1	0	0	0	0	0	0	0	0	0	0	0	0	0	0	0	0	0	1	0.000	0.000
80.000000	4423.589744	4606.666667	4441.025641	4213.333333	4577.435897	4588.205128	4558.461538	4286.153846	4015.897436	3868.717949	4239.487179	4187.692308	4494.358974	4497.948718	1721.000000	1691.000000	41.244000	0.000000	0.000000	0.000000	0.000000	1	1	0	0	0	0	0	0	0	0	0	0	0	0	0	0	0	0	0	1	0.000	0.000
81.000000	4425.128205	4607.179487	4446.153846	4214.358974	4576.923077	4589.743590	4554.871795	4284.615385	4015.897436	3870.256410	4240.512821	4191.282051	4494.358974	4499.487179	1721.000000	1690.000000	41.251000	0.000000	0.000000	0.000000	0.000000	1	1	0	0	0	0	0	0	0	0	0	0	0	0	0	0	0	0	0	1	0.000	0.000
82.000000	4421.538462	4606.153846	4442.564103	4216.923077	4572.820513	4592.307692	4555.384615	4285.641026	4015.384615	3869.230769	4242.051282	4189.743590	4494.871795	4497.948718	1720.000000	1692.000000	41.258000	0.000000	0.000000	0.000000	0.000000	1	1	0	0	0	0	0	0	0	0	0	0	0	0	0	0	0	0	0	1	0.000	0.000
83.000000	4422.051282	4608.717949	4445.128205	4218.974359	4573.333333	4589.230769	4552.307692	4284.102564	4014.871795	3868.205128	4241.538462	4192.307692	4494.358974	4499.487179	1721.000000	1690.000000	41.266000	0.000000	0.000000	0.000000	0.000000	1	1	0	0	0	0	0	0	0	0	0	0	0	0	0	0	0	0	0	1	0.000	0.000
84.000000	4420.000000	4607.179487	4439.487179	4214.871795	4576.923077	4590.256410	4555.897436	4284.615385	4016.410256	3871.282051	4241.025641	4189.230769	4493.846154	4499.487179	1720.000000	1692.000000	41.274000	0.000000	0.000000	0.000000	0.000000	1	1	0	0	0	0	0	0	0	0	0	0	0	0	0	0	0	0	0	1	0.000	0.000
85.000000	4421.025641	4609.230769	4447.179487	4214.871795	4576.923077	4591.794872	4553.846154	4284.102564	4017.435897	3871.282051	4243.589744	4195.384615	4496.410256	4498.974359	1721.000000	1691.000000	41.282000	0.000000	0.000000	0.000000	0.000000	1	1	0	0	0	0	0	0	0	0	0	0	0	0	0	0	0	0	0	1	0.000	0.000
86.000000	4417.435897	4607.179487	4444.102564	4214.871795	4575.897436	4591.282051	4556.923077	4285.128205	4016.410256	3869.230769	4243.076923	4192.307692	4496.410256	4497.948718	1720.000000	1691.000000	41.290000	0.000000	0.000000	0.000000	0.000000	1	1	0	0	0	0	0	0	0	0	0	0	0	0	0	0	0	0	0	1	0.000	0.000
87.000000	4420.512821	4611.794872	4450.256410	4214.358974	4575.384615	4588.717949	4553.846154	4282.051282	4015.897436	3869.743590	4241.025641	4195.384615	4494.358974	4496.923077	1721.000000	1691.000000	41.298000	0.000000	0.000000	0.000000	0.000000	1	1	0	0	0	0	0	0	0	0	0	0	0	0	0	0	0	0	0	1	0.000	0.000
88.000000	4418.974359	4608.717949	4446.666667	4212.307692	4575.897436	4588.205128	4555.384615	4283.076923	4016.923077	3871.282051	4242.051282	4190.769231	4495.384615	4496.410256	1721.000000	1690.000000	41.305000	0.000000	0.000000	0.000000	0.000000	1	1	0	0	0	0	0	0	0	0	0	0	0	0	0	0	0	0	0	1	0.000	0.000
89.000000	4420.512821	4607.179487	4446.666667	4216.410256	4575.897436	4589.743590	4554.358974	4283.589744	4017.435897	3870.769231	4243.589744	4192.820513	4497.435897	4499.487179	1721.000000	1691.000000	41.314000	0.000000	0.000000	0.000000	0.000000	1	1	0	0	0	0	0	0	0	0	0	0	0	0	0	0	0	0	0	1	0.000	0.000
90.000000	4420.512821	4606.153846	4440.000000	4216.410256	4575.384615	4590.256410	4554.358974	4283.076923	4016.410256	3870.769231	4241.025641	4191.282051	4494.871795	4496.410256	1721.000000	1690.000000	41.322000	0.000000	0.000000	0.000000	0.000000	1	1	0	0	0	0	0	0	0	0	0	0	0	0	0	0	0	0	0	1	0.000	0.000
91.000000	4423.589744	4609.743590	4444.615385	4215.897436	4574.358974	4589.743590	4551.794872	4284.102564	4014.871795	3871.282051	4238.461538	4189.743590	4495.384615	4495.897436	1721.000000	1691.000000	41.330000	0.000000	0.000000	0.000000	0.000000	1	1	0	0	0	0	0	0	0	0	0	0	0	0	0	0	0	0	0	1	0.000	0.000
92.000000	4421.025641	4605.128205	4445.128205	4214.358974	4575.897436	4588.205128	4556.410256	4285.641026	4015.384615	3870.769231	4240.512821	4190.256410	4496.923077	4497.948718	1721.000000	1690.000000	41.338000	0.000000	0.000000	0.000000	0.000000	1	1	0	0	0	0	0	0	0	0	0	0	0	0	0	0	0	0	0	1	0.000	0.000
93.000000	4419.487179	4606.153846	4443.076923	4217.948718	4577.435897	4587.692308	4557.435897	4284.615385	4016.410256	3869.743590	4243.589744	4191.282051	4495.384615	4501.025641	1721.000000	1691.000000	41.344000	0.000000	0.000000	0.000000	0.000000	1	1	0	0	0	0	0	0	0	0	0	0	0	0	0	0	0	0	0	1	0.000	0.000
94.000000	4421.538462	4611.282051	4444.615385	4220.000000	4576.923077	4588.205128	4553.846154	4282.564103	4015.897436	3869.743590	4245.128205	4193.333333	4494.358974	4499.487179	1721.000000	1691.000000	41.352000	0.000000	0.000000	0.000000	0.000000	1	1	0	0	0	0	0	0	0	0	0	0	0	0	0	0	0	0	0	1	0.000	0.000
95.000000	4420.512821	4609.743590	4441.025641	4217.948718	4576.410256	4590.769231	4552.307692	4285.128205	4017.948718	3869.743590	4242.564103	4190.769231	4495.897436	4496.923077	1720.000000	1691.000000	41.360000	0.000000	0.000000	0.000000	0.000000	1	1	0	0	0	0	0	0	0	0	0	0	0	0	0	0	0	0	0	1	0.000	0.000
96.000000	4422.051282	4606.666667	4445.641026	4217.435897	4574.871795	4589.230769	4552.307692	4284.615385	4017.435897	3868.717949	4241.538462	4194.871795	4494.358974	4497.948718	1722.000000	1691.000000	41.368000	0.000000	0.000000	0.000000	0.000000	1	1	0	0	0	0	0	0	0	0	0	0	0	0	0	0	0	0	0	1	0.000	0.000
97.000000	4420.512821	4605.641026	4443.589744	4215.897436	4575.897436	4588.205128	4554.871795	4285.128205	4014.871795	3868.205128	4241.025641	4190.769231	4494.358974	4497.948718	1720.000000	1690.000000	41.376000	0.000000	0.000000	0.000000	0.000000	1	1	0	0	0	0	0	0	0	0	0	0	0	0	0	0	0	0	0	1	0.000	0.000
98.000000	4420.512821	4609.743590	4444.102564	4215.897436	4577.948718	4589.743590	4551.282051	4285.641026	4014.358974	3869.230769	4242.564103	4193.333333	4497.435897	4498.974359	1721.000000	1691.000000	41.384000	0.000000	0.000000	0.000000	0.000000	1	1	0	0	0	0	0	0	0	0	0	0	0	0	0	0	0	0	0	1	0.000	0.000
99.000000	4417.948718	4607.179487	4437.948718	4214.358974	4578.974359	4592.820513	4556.410256	4287.179487	4016.923077	3870.256410	4242.564103	4192.307692	4495.897436	4497.948718	1721.000000	1690.000000	41.391000	0.000000	0.000000	0.000000	0.000000	1	1	0	0	0	0	0	0	0	0	0	0	0	0	0	0	0	0	0	1	0.000	0.000
100.000000	4424.102564	4610.256410	4446.666667	4216.923077	4575.897436	4590.769231	4553.846154	4283.076923	4016.923077	3870.256410	4242.051282	4197.435897	4494.358974	4498.461538	1721.000000	1691.000000	41.399000	0.000000	0.000000	0.000000	0.000000	1	1	0	0	0	0	0	0	0	0	0	0	0	0	0	0	0	0	0	1	0.000	0.000
101.000000	4420.512821	4607.692308	4441.025641	4215.384615	4576.923077	4589.743590	4557.435897	4285.128205	4016.410256	3870.256410	4241.025641	4191.282051	4495.384615	4497.435897	1721.000000	1690.000000	41.407000	0.000000	0.000000	0.000000	0.000000	1	1	0	0	0	0	0	0	0	0	0	0	0	0	0	0	0	0	0	1	0.000	0.000
102.000000	4420.000000	4609.743590	4444.615385	4215.384615	4578.461538	4590.256410	4553.846154	4285.641026	4017.435897	3870.256410	4241.538462	4192.307692	4496.923077	4499.487179	1721.000000	1692.000000	41.415000	0.000000	0.000000	0.000000	0.000000	1	1	0	0	0	0	0	0	0	0	0	0	0	0	0	0	0	0	0	1	0.000	0.000
103.000000	4420.000000	4607.179487	4444.615385	4215.384615	4576.410256	4590.769231	4554.871795	4284.615385	4017.435897	3870.769231	4242.564103	4191.794872	4494.871795	4499.487179	1721.000000	1690.000000	41.423000	0.000000	0.000000	0.000000	0.000000	1	1	0	0	0	0	0	0	0	0	0	0	0	0	0	0	0	0	0	1	0.000	0.000
104.000000	4422.564103	4607.179487	4448.717949	4216.410256	4575.897436	4589.743590	4553.333333	4281.025641	4015.897436	3870.256410	4240.512821	4193.846154	4495.384615	4498.461538	1720.000000	1692.000000	41.430000	0.000000	0.000000	0.000000	0.000000	1	1	0	0	0	0	0	0	0	0	0	0	0	0	0	0	0	0	0	1	0.000	0.000
105.000000	4420.512821	4605.128205	4440.512821	4212.820513	4577.948718	4591.794872	4554.871795	4282.051282	4015.897436	3869.230769	4239.487179	4187.179487	4496.923077	4496.410256	1720.000000	1690.000000	41.439000	0.000000	0.000000	0.000000	0.000000	1	1	0	0	0	0	0	0	0	0	0	0	0	0	0	0	0	0	0	1	0.000	0.000
106.000000	4422.564103	4609.743590	4444.102564	4213.846154	4578.461538	4592.820513	4551.794872	4282.564103	4016.923077	3868.717949	4241.538462	4192.820513	4495.897436	4497.435897	1721.000000	1691.000000	41.446000	0.000000	0.000000	0.000000	0.000000	1	1	0	0	0	0	0	0	0	0	0	0	0	0	0	0	0	0	0	1	0.000	0.000
107.000000	4418.461538	4609.230769	4443.076923	4215.384615	4576.923077	4589.230769	4556.923077	4284.102564	4016.923077	3869.230769	4240.512821	4194.358974	4492.820513	4498.461538	1721.000000	1690.000000	41.454000	0.000000	0.000000	0.000000	0.000000	1	1	0	0	0	0	0	0	0	0	0	0	0	0	0	0	0	0	0	1	0.000	0.000
108.000000	4417.948718	4607.692308	4444.102564	4214.871795	4576.410256	4587.692308	4557.435897	4283.589744	4016.410256	3869.743590	4240.000000	4191.794872	4494.358974	4500.512821	1721.000000	1691.000000	41.462000	0.000000	0.000000	0.000000	0.000000	1	1	0	0	0	0	0	0	0	0	0	0	0	0	0	0	0	0	0	1	0.000	0.000
109.000000	4421.538462	4606.666667	4444.102564	4215.897436	4575.897436	4590.256410	4553.333333	4282.051282	4016.410256	3870.256410	4243.076923	4193.333333	4495.897436	4499.487179	1721.000000	1690.000000	41.470000	0.000000	0.000000	0.000000	0.000000	1	1	0	0	0	0	0	0	0	0	0	0	0	0	0	0	0	0	0	1	0.000	0.000
110.000000	4423.076923	4608.717949	4443.589744	4217.948718	4576.923077	4590.769231	4553.846154	4285.641026	4017.435897	3870.256410	4243.076923	4193.333333	4494.871795	4498.461538	1721.000000	1691.000000	41.477000	0.000000	0.000000	0.000000	0.000000	1	1	0	0	0	0	0	0	0	0	0	0	0	0	0	0	0	0	0	1	0.000	0.000
111.000000	4421.025641	4608.205128	4446.666667	4215.384615	4574.871795	4588.717949	4558.461538	4287.179487	4016.923077	3869.743590	4239.487179	4192.820513	4494.358974	4498.974359	1721.000000	1691.000000	41.485000	0.000000	0.000000	0.000000	0.000000	1	1	0	0	0	0	0	0	0	0	0	0	0	0	0	0	0	0	0	1	0.000	0.000
112.000000	4418.461538	4606.666667	4445.128205	4211.794872	4573.846154	4589.230769	4561.025641	4286.666667	4014.358974	3869.230769	4240.000000	4188.717949	4494.871795	4498.974359	1721.000000	1692.000000	41.494000	0.000000	0.000000	0.000000	0.000000	1	1	0	0	0	0	0	0	0	0	0	0	0	0	0	0	0	0	0	1	0.000	0.000
113.000000	4421.538462	4608.717949	4447.692308	4214.358974	4575.384615	4589.230769	4554.871795	4283.076923	4011.794872	3868.717949	4244.615385	4193.333333	4493.846154	4498.461538	1721.000000	1690.000000	41.502000	0.000000	0.000000	0.000000	0.000000	1	1	0	0	0	0	0	0	0	0	0	0	0	0	0	0	0	0	0	1	0.000	0.000
114.000000	4420.000000	4607.692308	4439.487179	4213.333333	4575.897436	4589.743590	4552.307692	4283.076923	4014.358974	3868.205128	4242.564103	4190.256410	4493.333333	4496.410256	1720.000000	1691.000000	41.510000	0.000000	0.000000	0.000000	0.000000	1	1	0	0	0	0	0	0	0	0	0	0	0	0	0	0	0	0	0	1	0.000	0.000
115.000000	4423.589744	4610.769231	4446.153846	4214.358974	4574.871795	4590.769231	4551.794872	4282.564103	4016.923077	3869.743590	4241.538462	4193.846154	4495.897436	4495.897436	1721.000000	1690.000000	41.517000	0.000000	0.000000	0.000000	0.000000	1	1	0	0	0	0	0	0	0	0	0	0	0	0	0	0	0	0	0	1	0.000	0.000
116.000000	4420.512821	4607.179487	4443.076923	4214.358974	4573.846154	4591.794872	4555.384615	4285.128205	4017.948718	3870.769231	4242.051282	4191.282051	4495.897436	4496.410256	1720.000000	1691.000000	41.524000	0.000000	0.000000	0.000000	0.000000	1	1	0	0	0	0	0	0	0	0	0	0	0	0	0	0	0	0	0	1	0.000	0.000
117.000000	4422.564103	4611.794872	4446.153846	4216.410256	4574.871795	4588.717949	4549.230769	4286.666667	4017.948718	3869.230769	4242.564103	4194.358974	4494.358974	4500.000000	1721.000000	1692.000000	41.533000	0.000000	0.000000	0.000000	0.000000	1	1	0	0	0	0	0	0	0	0	0	0	0	0	0	0	0	0	0	1	0.000	0.000
118.000000	4420.512821	4608.205128	4440.512821	4214.871795	4577.948718	4588.717949	4557.435897	4286.153846	4017.435897	3869.743590	4242.051282	4191.282051	4493.333333	4498.461538	1721.000000	1690.000000	41.540000	0.000000	0.000000	0.000000	0.000000	1	1	0	0	0	0	0	0	0	0	0	0	0	0	0	0	0	0	0	1	0.000	0.000
119.000000	4423.076923	4608.717949	4448.205128	4216.923077	4577.435897	4590.256410	4557.435897	4284.102564	4015.897436	3870.256410	4242.051282	4194.358974	4495.384615	4498.974359	1720.000000	1691.000000	41.548000	0.000000	0.000000	0.000000	0.000000	1	1	0	0	0	0	0	0	0	0	0	0	0	0	0	0	0	0	0	1	0.000	0.000
120.000000	4420.512821	4606.153846	4443.076923	4214.871795	4575.897436	4588.717949	4555.384615	4286.666667	4015.384615	3870.769231	4239.487179	4192.307692	4494.871795	4498.974359	1721.000000	1691.000000	41.555000	0.000000	0.000000	0.000000	0.000000	1	1	0	0	0	0	0	0	0	0	0	0	0	0	0	0	0	0	0	1	0.000	0.000
121.000000	4422.051282	4610.256410	4444.615385	4214.871795	4576.923077	4585.641026	4552.820513	4285.641026	4016.923077	3870.769231	4239.487179	4193.846154	4493.333333	4498.974359	1720.000000	1691.000000	41.562000	0.000000	0.000000	0.000000	0.000000	1	1	0	0	0	0	0	0	0	0	0	0	0	0	0	0	0	0	0	1	0.000	0.000
122.000000	4419.487179	4606.666667	4444.102564	4212.307692	4576.410256	4587.179487	4556.410256	4284.102564	4016.923077	3868.717949	4242.564103	4190.769231	4493.333333	4498.974359	1721.000000	1690.000000	41.570000	0.000000	0.000000	0.000000	0.000000	1	1	0	0	0	0	0	0	0	0	0	0	0	0	0	0	0	0	0	1	0.000	0.000
123.000000	4420.000000	4605.128205	4447.179487	4211.794872	4574.871795	4588.717949	4553.846154	4282.051282	4016.410256	3867.692308	4244.615385	4191.794872	4497.948718	4501.538462	1720.000000	1691.000000	41.578000	0.000000	0.000000	0.000000	0.000000	1	1	0	0	0	0	0	0	0	0	0	0	0	0	0	0	0	0	0	1	0.000	0.000
124.000000	4420.512821	4605.641026	4443.589744	4213.846154	4577.435897	4587.179487	4553.846154	4283.589744	4016.923077	3869.743590	4243.076923	4190.769231	4499.487179	4498.974359	1721.000000	1690.000000	41.588000	0.000000	0.000000	0.000000	0.000000	1	1	0	0	0	0	0	0	0	0	0	0	0	0	0	0	0	0	0	1	0.000	0.000
125.000000	4421.538462	4609.230769	4443.076923	4215.384615	4576.923077	4588.205128	4555.384615	4284.615385	4017.948718	3870.256410	4241.538462	4191.794872	4496.410256	4495.897436	1720.000000	1691.000000	41.596000	0.000000	0.000000	0.000000	0.000000	1	1	0	0	0	0	0	0	0	0	0	0	0	0	0	0	0	0	0	1	0.000	0.000
126.000000	4420.000000	4608.205128	4444.102564	4213.333333	4573.333333	4590.256410	4556.410256	4283.076923	4015.384615	3869.230769	4243.076923	4192.820513	4493.333333	4497.435897	1721.000000	1691.000000	41.603000	0.000000	0.000000	0.000000	0.000000	1	1	0	0	0	0	0	0	0	0	0	0	0	0	0	0	0	0	0	1	0.000	0.000
